LabVIEW Measurement	
Writer_Version	2
Reader_Version	2
Separator	Tab
Decimal_Separator	.
Multi_Headings	No
X_Columns	Multi
Time_Pref	Absolute
Operator	mmolter
Date	2018/09/11
Time	13:15:41.5218734300348828084
***End_of_Header***	
	
Channels	1	
Samples	5000	
Date	2018/09/11	
Time	13:15:41.5218734300348828084	
Y_Unit_Label	Volts	
X_Dimension	Time	
X0	0.0000000000000000E+0	
Delta_X	0.001000	
***End_of_Header***		
X_Value	Voltage	Comment
0.000000	-0.044838
0.001000	-0.042874
0.002000	-0.041425
0.003000	-0.042036
0.004000	-0.044355
0.005000	-0.047736
0.006000	-0.051793
0.007000	-0.056398
0.008000	-0.059940
0.009000	-0.062484
0.010000	-0.064255
0.011000	-0.063933
0.012000	-0.061421
0.013000	-0.058716
0.014000	-0.055206
0.015000	-0.050988
0.016000	-0.046416
0.017000	-0.043067
0.018000	-0.040781
0.019000	-0.040813
0.020000	-0.041843
0.021000	-0.044162
0.022000	-0.047543
0.023000	-0.051536
0.024000	-0.056237
0.025000	-0.059811
0.026000	-0.061808
0.027000	-0.063031
0.028000	-0.062580
0.029000	-0.059586
0.030000	-0.056849
0.031000	-0.052598
0.032000	-0.048219
0.033000	-0.043872
0.034000	-0.041199
0.035000	-0.039815
0.036000	-0.039235
0.037000	-0.040813
0.038000	-0.044097
0.039000	-0.047768
0.040000	-0.052502
0.041000	-0.056333
0.042000	-0.059650
0.043000	-0.061357
0.044000	-0.061292
0.045000	-0.060230
0.046000	-0.057299
0.047000	-0.054144
0.048000	-0.049829
0.049000	-0.045321
0.050000	-0.041650
0.051000	-0.039396
0.052000	-0.038011
0.053000	-0.038430
0.054000	-0.041006
0.055000	-0.044001
0.056000	-0.048058
0.057000	-0.052534
0.058000	-0.056333
0.059000	-0.059650
0.060000	-0.060906
0.061000	-0.061067
0.062000	-0.058684
0.063000	-0.055142
0.064000	-0.051600
0.065000	-0.047317
0.066000	-0.043453
0.067000	-0.039879
0.068000	-0.037625
0.069000	-0.037464
0.070000	-0.038430
0.071000	-0.041264
0.072000	-0.044548
0.073000	-0.048831
0.074000	-0.053307
0.075000	-0.056559
0.076000	-0.059586
0.077000	-0.060069
0.078000	-0.059489
0.079000	-0.057106
0.080000	-0.053500
0.081000	-0.049571
0.082000	-0.045063
0.083000	-0.041135
0.084000	-0.038494
0.085000	-0.036434
0.086000	-0.036208
0.087000	-0.038945
0.088000	-0.041811
0.089000	-0.045450
0.090000	-0.049571
0.091000	-0.053339
0.092000	-0.057042
0.093000	-0.058652
0.094000	-0.059296
0.095000	-0.058330
0.096000	-0.055496
0.097000	-0.051729
0.098000	-0.047285
0.099000	-0.043228
0.100000	-0.039428
0.101000	-0.037142
0.102000	-0.035886
0.103000	-0.036595
0.104000	-0.038398
0.105000	-0.041618
0.106000	-0.045675
0.107000	-0.050441
0.108000	-0.053918
0.109000	-0.056688
0.110000	-0.058587
0.111000	-0.058298
0.112000	-0.055915
0.113000	-0.052952
0.114000	-0.049153
0.115000	-0.044902
0.116000	-0.040652
0.117000	-0.037303
0.118000	-0.035210
0.119000	-0.034856
0.120000	-0.035693
0.121000	-0.038655
0.122000	-0.041843
0.123000	-0.046287
0.124000	-0.050634
0.125000	-0.052920
0.126000	-0.056269
0.127000	-0.056913
0.128000	-0.056591
0.129000	-0.053693
0.130000	-0.050537
0.131000	-0.047060
0.132000	-0.042036
0.133000	-0.038849
0.134000	-0.034630
0.135000	-0.033342
0.136000	-0.033890
0.137000	-0.035403
0.138000	-0.038527
0.139000	-0.042230
0.140000	-0.046706
0.141000	-0.050505
0.142000	-0.053661
0.143000	-0.055754
0.144000	-0.056011
0.145000	-0.054530
0.146000	-0.051697
0.147000	-0.048895
0.148000	-0.044258
0.149000	-0.039493
0.150000	-0.036466
0.151000	-0.033568
0.152000	-0.032441
0.153000	-0.033214
0.154000	-0.035435
0.155000	-0.038108
0.156000	-0.042584
0.157000	-0.046963
0.158000	-0.050473
0.159000	-0.053081
0.160000	-0.055110
0.161000	-0.054530
0.162000	-0.053435
0.163000	-0.050151
0.164000	-0.046609
0.165000	-0.041392
0.166000	-0.037432
0.167000	-0.033922
0.168000	-0.031604
0.169000	-0.031120
0.170000	-0.032570
0.171000	-0.035757
0.172000	-0.038269
0.173000	-0.042680
0.174000	-0.047285
0.175000	-0.050537
0.176000	-0.053146
0.177000	-0.054240
0.178000	-0.053661
0.179000	-0.050956
0.180000	-0.047511
0.181000	-0.043421
0.182000	-0.038688
0.183000	-0.035274
0.184000	-0.032087
0.185000	-0.030154
0.186000	-0.030187
0.187000	-0.031893
0.188000	-0.034663
0.189000	-0.038559
0.190000	-0.043324
0.191000	-0.047124
0.192000	-0.050505
0.193000	-0.052502
0.194000	-0.053210
0.195000	-0.050988
0.196000	-0.048316
0.197000	-0.045772
0.198000	-0.040684
0.199000	-0.036240
0.200000	-0.032441
0.201000	-0.029897
0.202000	-0.028899
0.203000	-0.029736
0.204000	-0.031797
0.205000	-0.034824
0.206000	-0.038527
0.207000	-0.043453
0.208000	-0.047189
0.209000	-0.049475
0.210000	-0.050956
0.211000	-0.051825
0.212000	-0.049475
0.213000	-0.046255
0.214000	-0.042906
0.215000	-0.037850
0.216000	-0.033922
0.217000	-0.030863
0.218000	-0.027675
0.219000	-0.027707
0.220000	-0.028641
0.221000	-0.031410
0.222000	-0.034598
0.223000	-0.038945
0.224000	-0.043968
0.225000	-0.046931
0.226000	-0.048863
0.227000	-0.050763
0.228000	-0.049475
0.229000	-0.046899
0.230000	-0.044548
0.231000	-0.040845
0.232000	-0.035403
0.233000	-0.031475
0.234000	-0.029188
0.235000	-0.027385
0.236000	-0.026838
0.237000	-0.028802
0.238000	-0.031797
0.239000	-0.035210
0.240000	-0.040169
0.241000	-0.043904
0.242000	-0.046448
0.243000	-0.049185
0.244000	-0.049153
0.245000	-0.048444
0.246000	-0.045578
0.247000	-0.042294
0.248000	-0.037464
0.249000	-0.033053
0.250000	-0.029639
0.251000	-0.027224
0.252000	-0.025904
0.253000	-0.026580
0.254000	-0.029027
0.255000	-0.032151
0.256000	-0.035532
0.257000	-0.040072
0.258000	-0.044033
0.259000	-0.046641
0.260000	-0.048509
0.261000	-0.048509
0.262000	-0.046480
0.263000	-0.043324
0.264000	-0.039364
0.265000	-0.034791
0.266000	-0.030927
0.267000	-0.027546
0.268000	-0.025485
0.269000	-0.024487
0.270000	-0.025614
0.271000	-0.028609
0.272000	-0.031700
0.273000	-0.036112
0.274000	-0.040298
0.275000	-0.044065
0.276000	-0.046480
0.277000	-0.047156
0.278000	-0.047446
0.279000	-0.044194
0.280000	-0.041199
0.281000	-0.037239
0.282000	-0.032634
0.283000	-0.028705
0.284000	-0.025679
0.285000	-0.024230
0.286000	-0.024004
0.287000	-0.025743
0.288000	-0.029156
0.289000	-0.032280
0.290000	-0.036756
0.291000	-0.040974
0.292000	-0.044129
0.293000	-0.046351
0.294000	-0.047414
0.295000	-0.045450
0.296000	-0.042648
0.297000	-0.039428
0.298000	-0.035113
0.299000	-0.030863
0.300000	-0.026645
0.301000	-0.024165
0.302000	-0.023167
0.303000	-0.023682
0.304000	-0.025646
0.305000	-0.028544
0.306000	-0.032344
0.307000	-0.037142
0.308000	-0.041392
0.309000	-0.043743
0.310000	-0.045611
0.311000	-0.045739
0.312000	-0.043936
0.313000	-0.040330
0.314000	-0.036981
0.315000	-0.032119
0.316000	-0.028287
0.317000	-0.024262
0.318000	-0.022748
0.319000	-0.021493
0.320000	-0.022459
0.321000	-0.025775
0.322000	-0.028995
0.323000	-0.032763
0.324000	-0.037883
0.325000	-0.040942
0.326000	-0.043421
0.327000	-0.044548
0.328000	-0.044001
0.329000	-0.041489
0.330000	-0.038333
0.331000	-0.034341
0.332000	-0.029704
0.333000	-0.025775
0.334000	-0.022620
0.335000	-0.021074
0.336000	-0.020977
0.337000	-0.022298
0.338000	-0.025260
0.339000	-0.029414
0.340000	-0.033986
0.341000	-0.037271
0.342000	-0.040523
0.343000	-0.042938
0.344000	-0.043807
0.345000	-0.041940
0.346000	-0.039106
0.347000	-0.035693
0.348000	-0.031539
0.349000	-0.026773
0.350000	-0.023296
0.351000	-0.020688
0.352000	-0.019850
0.353000	-0.020108
0.354000	-0.022330
0.355000	-0.025646
0.356000	-0.029382
0.357000	-0.034244
0.358000	-0.037174
0.359000	-0.039879
0.360000	-0.041940
0.361000	-0.041489
0.362000	-0.040233
0.363000	-0.037528
0.364000	-0.033149
0.365000	-0.028190
0.366000	-0.024262
0.367000	-0.021203
0.368000	-0.018498
0.369000	-0.017854
0.370000	-0.019400
0.371000	-0.021525
0.372000	-0.024648
0.373000	-0.029349
0.374000	-0.033214
0.375000	-0.036949
0.376000	-0.039493
0.377000	-0.040394
0.378000	-0.039750
0.379000	-0.036917
0.380000	-0.033793
0.381000	-0.030026
0.382000	-0.024745
0.383000	-0.021171
0.384000	-0.018112
0.385000	-0.016598
0.386000	-0.016212
0.387000	-0.017468
0.388000	-0.020688
0.389000	-0.023908
0.390000	-0.028899
0.391000	-0.032248
0.392000	-0.035500
0.393000	-0.037818
0.394000	-0.038623
0.395000	-0.036820
0.396000	-0.034180
0.397000	-0.030605
0.398000	-0.025936
0.399000	-0.021364
0.400000	-0.018015
0.401000	-0.014344
0.402000	-0.013024
0.403000	-0.014054
0.404000	-0.015954
0.405000	-0.019110
0.406000	-0.022942
0.407000	-0.027965
0.408000	-0.031056
0.409000	-0.034019
0.410000	-0.035500
0.411000	-0.035500
0.412000	-0.033214
0.413000	-0.029961
0.414000	-0.026580
0.415000	-0.021364
0.416000	-0.017081
0.417000	-0.013378
0.418000	-0.011414
0.419000	-0.010641
0.420000	-0.011897
0.421000	-0.014215
0.422000	-0.017017
0.423000	-0.021718
0.424000	-0.026419
0.425000	-0.028963
0.426000	-0.031539
0.427000	-0.032473
0.428000	-0.032376
0.429000	-0.029253
0.430000	-0.026129
0.431000	-0.022233
0.432000	-0.016920
0.433000	-0.013249
0.434000	-0.010544
0.435000	-0.008773
0.436000	-0.008162
0.437000	-0.009611
0.438000	-0.012831
0.439000	-0.015986
0.440000	-0.020752
0.441000	-0.024648
0.442000	-0.027611
0.443000	-0.029768
0.444000	-0.030187
0.445000	-0.028190
0.446000	-0.025904
0.447000	-0.022652
0.448000	-0.018305
0.449000	-0.013217
0.450000	-0.009804
0.451000	-0.007260
0.452000	-0.005940
0.453000	-0.006326
0.454000	-0.008999
0.455000	-0.011317
0.456000	-0.015213
0.457000	-0.019528
0.458000	-0.023264
0.459000	-0.025968
0.460000	-0.027643
0.461000	-0.028255
0.462000	-0.025807
0.463000	-0.023038
0.464000	-0.019142
0.465000	-0.014924
0.466000	-0.010577
0.467000	-0.006680
0.468000	-0.004909
0.469000	-0.003815
0.470000	-0.004942
0.471000	-0.007968
0.472000	-0.011414
0.473000	-0.015117
0.474000	-0.019432
0.475000	-0.023070
0.476000	-0.025292
0.477000	-0.026806
0.478000	-0.025936
0.479000	-0.023135
0.480000	-0.020655
0.481000	-0.016051
0.482000	-0.011156
0.483000	-0.007904
0.484000	-0.004845
0.485000	-0.002881
0.486000	-0.002140
0.487000	-0.004265
0.488000	-0.007324
0.489000	-0.010577
0.490000	-0.015342
0.491000	-0.019303
0.492000	-0.023231
0.493000	-0.024358
0.494000	-0.025614
0.495000	-0.023811
0.496000	-0.021010
0.497000	-0.017918
0.498000	-0.013764
0.499000	-0.009063
0.500000	-0.005231
0.501000	-0.002623
0.502000	-0.001947
0.503000	-0.002108
0.504000	-0.003557
0.505000	-0.007067
0.506000	-0.011253
0.507000	-0.015535
0.508000	-0.019239
0.509000	-0.022459
0.510000	-0.024262
0.511000	-0.024294
0.512000	-0.022555
0.513000	-0.019593
0.514000	-0.015857
0.515000	-0.011478
0.516000	-0.006938
0.517000	-0.003396
0.518000	-0.001271
0.519000	-0.000949
0.520000	-0.001625
0.521000	-0.004362
0.522000	-0.007904
0.523000	-0.012058
0.524000	-0.016598
0.525000	-0.020237
0.526000	-0.022716
0.527000	-0.023425
0.528000	-0.023103
0.529000	-0.020816
0.530000	-0.017918
0.531000	-0.013442
0.532000	-0.008967
0.533000	-0.005135
0.534000	-0.002269
0.535000	-0.000305
0.536000	-7.929616E-5
0.537000	-0.001593
0.538000	-0.004716
0.539000	-0.008097
0.540000	-0.012573
0.541000	-0.016566
0.542000	-0.019979
0.543000	-0.022201
0.544000	-0.022974
0.545000	-0.021106
0.546000	-0.018691
0.547000	-0.015761
0.548000	-0.011446
0.549000	-0.006809
0.550000	-0.003396
0.551000	-0.000884
0.552000	0.000597
0.553000	0.000597
0.554000	-0.002044
0.555000	-0.005006
0.556000	-0.008934
0.557000	-0.012959
0.558000	-0.016695
0.559000	-0.019561
0.560000	-0.021299
0.561000	-0.021235
0.562000	-0.019818
0.563000	-0.017081
0.564000	-0.013185
0.565000	-0.008484
0.566000	-0.004298
0.567000	-0.001239
0.568000	0.001627
0.569000	0.002497
0.570000	-1.489535E-5
0.571000	-0.001689
0.572000	-0.005135
0.573000	-0.009289
0.574000	-0.013539
0.575000	-0.016727
0.576000	-0.019850
0.577000	-0.020430
0.578000	-0.020108
0.579000	-0.017564
0.580000	-0.014827
0.581000	-0.010609
0.582000	-0.006262
0.583000	-0.002849
0.584000	0.000436
0.585000	0.002626
0.586000	0.002336
0.587000	0.000790
0.588000	-0.001722
0.589000	-0.005618
0.590000	-0.009997
0.591000	-0.013410
0.592000	-0.017146
0.593000	-0.019271
0.594000	-0.020172
0.595000	-0.018176
0.596000	-0.015954
0.597000	-0.013088
0.598000	-0.008162
0.599000	-0.003686
0.600000	-0.000530
0.601000	0.002432
0.602000	0.003656
0.603000	0.002883
0.604000	0.001048
0.605000	-0.001979
0.606000	-0.005296
0.607000	-0.010319
0.608000	-0.014022
0.609000	-0.016727
0.610000	-0.018756
0.611000	-0.018884
0.612000	-0.016888
0.613000	-0.014022
0.614000	-0.010544
0.615000	-0.005747
0.616000	-0.001883
0.617000	0.001466
0.618000	0.003849
0.619000	0.004429
0.620000	0.003559
0.621000	0.000694
0.622000	-0.002559
0.623000	-0.006519
0.624000	-0.011800
0.625000	-0.014441
0.626000	-0.016437
0.627000	-0.018112
0.628000	-0.017564
0.629000	-0.015149
0.630000	-0.012154
0.631000	-0.008001
0.632000	-0.003815
0.633000	-7.929616E-5
0.634000	0.002497
0.635000	0.004719
0.636000	0.005459
0.637000	0.002787
0.638000	0.000758
0.639000	-0.003010
0.640000	-0.007775
0.641000	-0.010899
0.642000	-0.014537
0.643000	-0.017113
0.644000	-0.017693
0.645000	-0.016083
0.646000	-0.013668
0.647000	-0.010834
0.648000	-0.006262
0.649000	-0.001528
0.650000	0.001724
0.651000	0.004719
0.652000	0.005266
0.653000	0.005041
0.654000	0.003076
0.655000	0.000339
0.656000	-0.003621
0.657000	-0.008419
0.658000	-0.011865
0.659000	-0.014891
0.660000	-0.016888
0.661000	-0.016598
0.662000	-0.014988
0.663000	-0.012219
0.664000	-0.009289
0.665000	-0.004265
0.666000	-7.929616E-5
0.667000	0.003334
0.668000	0.004912
0.669000	0.006071
0.670000	0.004944
0.671000	0.001982
0.672000	-0.000981
0.673000	-0.005006
0.674000	-0.008934
0.675000	-0.012509
0.676000	-0.015085
0.677000	-0.016759
0.678000	-0.016147
0.679000	-0.014054
0.680000	-0.011092
0.681000	-0.006970
0.682000	-0.002366
0.683000	0.001048
0.684000	0.004171
0.685000	0.006554
0.686000	0.006651
0.687000	0.004493
0.688000	0.001338
0.689000	-0.001496
0.690000	-0.006101
0.691000	-0.009997
0.692000	-0.013571
0.693000	-0.015600
0.694000	-0.016308
0.695000	-0.015020
0.696000	-0.012283
0.697000	-0.009063
0.698000	-0.004845
0.699000	-0.000208
0.700000	0.003173
0.701000	0.005330
0.702000	0.006973
0.703000	0.006940
0.704000	0.004751
0.705000	0.001821
0.706000	-0.001915
0.707000	-0.006809
0.708000	-0.009868
0.709000	-0.013764
0.710000	-0.015471
0.711000	-0.015471
0.712000	-0.013346
0.713000	-0.010126
0.714000	-0.007324
0.715000	-0.002430
0.716000	0.002143
0.717000	0.004912
0.718000	0.007681
0.719000	0.008679
0.720000	0.007327
0.721000	0.004783
0.722000	0.002143
0.723000	-0.002462
0.724000	-0.006713
0.725000	-0.009965
0.726000	-0.013217
0.727000	-0.013893
0.728000	-0.013217
0.729000	-0.010834
0.730000	-0.007872
0.731000	-0.003847
0.732000	0.000661
0.733000	0.004622
0.734000	0.008067
0.735000	0.009935
0.736000	0.010193
0.737000	0.008293
0.738000	0.005749
0.739000	0.002722
0.740000	-0.001818
0.741000	-0.006133
0.742000	-0.008999
0.743000	-0.010770
0.744000	-0.011961
0.745000	-0.010351
0.746000	-0.007646
0.747000	-0.004748
0.748000	-0.000434
0.749000	0.004976
0.750000	0.008132
0.751000	0.010643
0.752000	0.012575
0.753000	0.012447
0.754000	0.009710
0.755000	0.006908
0.756000	0.003785
0.757000	-0.001303
0.758000	-0.004555
0.759000	-0.007389
0.760000	-0.009224
0.761000	-0.009063
0.762000	-0.007485
0.763000	-0.004652
0.764000	-0.001335
0.765000	0.003624
0.766000	0.008261
0.767000	0.011352
0.768000	0.013735
0.769000	0.014443
0.770000	0.013509
0.771000	0.011255
0.772000	0.008293
0.773000	0.004010
0.774000	-0.000144
0.775000	-0.003106
0.776000	-0.005714
0.777000	-0.006777
0.778000	-0.006745
0.779000	-0.004169
0.780000	-0.001078
0.781000	0.002754
0.782000	0.007456
0.783000	0.011094
0.784000	0.014121
0.785000	0.015763
0.786000	0.016858
0.787000	0.014862
0.788000	0.011706
0.789000	0.009227
0.790000	0.004397
0.791000	0.000339
0.792000	-0.002881
0.793000	-0.004652
0.794000	-0.005618
0.795000	-0.004104
0.796000	-0.001464
0.797000	0.001917
0.798000	0.006457
0.799000	0.010998
0.800000	0.013735
0.801000	0.016536
0.802000	0.018211
0.803000	0.018307
0.804000	0.015667
0.805000	0.012962
0.806000	0.009420
0.807000	0.005008
0.808000	0.001338
0.809000	-0.001689
0.810000	-0.003396
0.811000	-0.003750
0.812000	-0.001528
0.813000	0.001434
0.814000	0.004686
0.815000	0.009194
0.816000	0.013445
0.817000	0.017051
0.818000	0.019080
0.819000	0.019949
0.820000	0.019241
0.821000	0.016311
0.822000	0.013413
0.823000	0.009388
0.824000	0.004719
0.825000	0.001660
0.826000	-0.000659
0.827000	-0.001915
0.828000	-0.001754
0.829000	0.000500
0.830000	0.003720
0.831000	0.007069
0.832000	0.012157
0.833000	0.016182
0.834000	0.018822
0.835000	0.021012
0.836000	0.021592
0.837000	0.019885
0.838000	0.016633
0.839000	0.013638
0.840000	0.009484
0.841000	0.005008
0.842000	0.001531
0.843000	-0.000401
0.844000	-0.001013
0.845000	0.000146
0.846000	0.002883
0.847000	0.006747
0.848000	0.010547
0.849000	0.015924
0.850000	0.018983
0.851000	0.021914
0.852000	0.022719
0.853000	0.022525
0.854000	0.021109
0.855000	0.017663
0.856000	0.013831
0.857000	0.009484
0.858000	0.005813
0.859000	0.002690
0.860000	0.000758
0.861000	0.000436
0.862000	0.002722
0.863000	0.005717
0.864000	0.009452
0.865000	0.013187
0.866000	0.018694
0.867000	0.021431
0.868000	0.023878
0.869000	0.024554
0.870000	0.023781
0.871000	0.020593
0.872000	0.017760
0.873000	0.013413
0.874000	0.008744
0.875000	0.005942
0.876000	0.003463
0.877000	0.002336
0.878000	0.002883
0.879000	0.004429
0.880000	0.007810
0.881000	0.011577
0.882000	0.015667
0.883000	0.020626
0.884000	0.023234
0.885000	0.025327
0.886000	0.025262
0.887000	0.023652
0.888000	0.021044
0.889000	0.017889
0.890000	0.013863
0.891000	0.009388
0.892000	0.006296
0.893000	0.004429
0.894000	0.003559
0.895000	0.005202
0.896000	0.007262
0.897000	0.010386
0.898000	0.014668
0.899000	0.019048
0.900000	0.022751
0.901000	0.025681
0.902000	0.026937
0.903000	0.026969
0.904000	0.024779
0.905000	0.021785
0.906000	0.017599
0.907000	0.013413
0.908000	0.009806
0.909000	0.006586
0.910000	0.004880
0.911000	0.004944
0.912000	0.006618
0.913000	0.009452
0.914000	0.013155
0.915000	0.017599
0.916000	0.021624
0.917000	0.025166
0.918000	0.027710
0.919000	0.027935
0.920000	0.027710
0.921000	0.024812
0.922000	0.021785
0.923000	0.017438
0.924000	0.013091
0.925000	0.010225
0.926000	0.007230
0.927000	0.006168
0.928000	0.006522
0.929000	0.008454
0.930000	0.012157
0.931000	0.015602
0.932000	0.020432
0.933000	0.023685
0.934000	0.027484
0.935000	0.029191
0.936000	0.028965
0.937000	0.027774
0.938000	0.025037
0.939000	0.020980
0.940000	0.016987
0.941000	0.012736
0.942000	0.009677
0.943000	0.007327
0.944000	0.007101
0.945000	0.007874
0.946000	0.010096
0.947000	0.013638
0.948000	0.017953
0.949000	0.022525
0.950000	0.025617
0.951000	0.028579
0.952000	0.030189
0.953000	0.029867
0.954000	0.027484
0.955000	0.024908
0.956000	0.020593
0.957000	0.016021
0.958000	0.012801
0.959000	0.009613
0.960000	0.007520
0.961000	0.007778
0.962000	0.009323
0.963000	0.012092
0.964000	0.015731
0.965000	0.020368
0.966000	0.024490
0.967000	0.027452
0.968000	0.029899
0.969000	0.030769
0.970000	0.029964
0.971000	0.027742
0.972000	0.024425
0.973000	0.020304
0.974000	0.015860
0.975000	0.012640
0.976000	0.010032
0.977000	0.007906
0.978000	0.009194
0.979000	0.011191
0.980000	0.013541
0.981000	0.018050
0.982000	0.022332
0.983000	0.026744
0.984000	0.029352
0.985000	0.031413
0.986000	0.031477
0.987000	0.030157
0.988000	0.027677
0.989000	0.024393
0.990000	0.019563
0.991000	0.015473
0.992000	0.012286
0.993000	0.010064
0.994000	0.009420
0.995000	0.010579
0.996000	0.013187
0.997000	0.015892
0.998000	0.020529
0.999000	0.024457
1.000000	0.027935
1.001000	0.031155
1.002000	0.032508
1.003000	0.032282
1.004000	0.029642
1.005000	0.026937
1.006000	0.023395
1.007000	0.018694
1.008000	0.015377
1.009000	0.011803
1.010000	0.010096
1.011000	0.009420
1.012000	0.011384
1.013000	0.014668
1.014000	0.017502
1.015000	0.021849
1.016000	0.026035
1.017000	0.029062
1.018000	0.032024
1.019000	0.032443
1.020000	0.031219
1.021000	0.028901
1.022000	0.026067
1.023000	0.021527
1.024000	0.017180
1.025000	0.013348
1.026000	0.010998
1.027000	0.009066
1.028000	0.009484
1.029000	0.011899
1.030000	0.014540
1.031000	0.018919
1.032000	0.023105
1.033000	0.026872
1.034000	0.029931
1.035000	0.032057
1.036000	0.032282
1.037000	0.030511
1.038000	0.028096
1.039000	0.024618
1.040000	0.020014
1.041000	0.015989
1.042000	0.012382
1.043000	0.010386
1.044000	0.009452
1.045000	0.010354
1.046000	0.013091
1.047000	0.016311
1.048000	0.020626
1.049000	0.024908
1.050000	0.028193
1.051000	0.031284
1.052000	0.032797
1.053000	0.032314
1.054000	0.030447
1.055000	0.027388
1.056000	0.023942
1.057000	0.019692
1.058000	0.015473
1.059000	0.012318
1.060000	0.010257
1.061000	0.010386
1.062000	0.011738
1.063000	0.014572
1.064000	0.017856
1.065000	0.022300
1.066000	0.026905
1.067000	0.029899
1.068000	0.032282
1.069000	0.033152
1.070000	0.032797
1.071000	0.030060
1.072000	0.026744
1.073000	0.022976
1.074000	0.017985
1.075000	0.015151
1.076000	0.012221
1.077000	0.010965
1.078000	0.011255
1.079000	0.013219
1.080000	0.016633
1.081000	0.020626
1.082000	0.025166
1.083000	0.029062
1.084000	0.031606
1.085000	0.034246
1.086000	0.033924
1.087000	0.032604
1.088000	0.029770
1.089000	0.026711
1.090000	0.022686
1.091000	0.018275
1.092000	0.015151
1.093000	0.013445
1.094000	0.012382
1.095000	0.013541
1.096000	0.016279
1.097000	0.019016
1.098000	0.023878
1.099000	0.028160
1.100000	0.031091
1.101000	0.034279
1.102000	0.035953
1.103000	0.035953
1.104000	0.033667
1.105000	0.031284
1.106000	0.027452
1.107000	0.022654
1.108000	0.019273
1.109000	0.016343
1.110000	0.013960
1.111000	0.014604
1.112000	0.015699
1.113000	0.018887
1.114000	0.022493
1.115000	0.027388
1.116000	0.031541
1.117000	0.034955
1.118000	0.037531
1.119000	0.038432
1.120000	0.037788
1.121000	0.035212
1.122000	0.032411
1.123000	0.028676
1.124000	0.023910
1.125000	0.020754
1.126000	0.017953
1.127000	0.016697
1.128000	0.017148
1.129000	0.019402
1.130000	0.022558
1.131000	0.026422
1.132000	0.031284
1.133000	0.035406
1.134000	0.038722
1.135000	0.041008
1.136000	0.041137
1.137000	0.039849
1.138000	0.037048
1.139000	0.034118
1.140000	0.029803
1.141000	0.025810
1.142000	0.022719
1.143000	0.020529
1.144000	0.019499
1.145000	0.020400
1.146000	0.023202
1.147000	0.026486
1.148000	0.030511
1.149000	0.035470
1.150000	0.039141
1.151000	0.041974
1.152000	0.043456
1.153000	0.043617
1.154000	0.041813
1.155000	0.038980
1.156000	0.035180
1.157000	0.031219
1.158000	0.027227
1.159000	0.024039
1.160000	0.022654
1.161000	0.022751
1.162000	0.023813
1.163000	0.027388
1.164000	0.030704
1.165000	0.035180
1.166000	0.039817
1.167000	0.042393
1.168000	0.045613
1.169000	0.046193
1.170000	0.045935
1.171000	0.042876
1.172000	0.040171
1.173000	0.035889
1.174000	0.031574
1.175000	0.028450
1.176000	0.026067
1.177000	0.024457
1.178000	0.024779
1.179000	0.026937
1.180000	0.030286
1.181000	0.033892
1.182000	0.038432
1.183000	0.042715
1.184000	0.046289
1.185000	0.048447
1.186000	0.048414
1.187000	0.046998
1.188000	0.044325
1.189000	0.041073
1.190000	0.036822
1.191000	0.033087
1.192000	0.029642
1.193000	0.027323
1.194000	0.027001
1.195000	0.027774
1.196000	0.030318
1.197000	0.033538
1.198000	0.037853
1.199000	0.042522
1.200000	0.045967
1.201000	0.049123
1.202000	0.050508
1.203000	0.050057
1.204000	0.048672
1.205000	0.045935
1.206000	0.041942
1.207000	0.037660
1.208000	0.033957
1.209000	0.030994
1.210000	0.028772
1.211000	0.028708
1.212000	0.029931
1.213000	0.033280
1.214000	0.036951
1.215000	0.041105
1.216000	0.045710
1.217000	0.049509
1.218000	0.051667
1.219000	0.052311
1.220000	0.051602
1.221000	0.049574
1.222000	0.046418
1.223000	0.041620
1.224000	0.037048
1.225000	0.033828
1.226000	0.031445
1.227000	0.030092
1.228000	0.030414
1.229000	0.032669
1.230000	0.035438
1.231000	0.039463
1.232000	0.043681
1.233000	0.047545
1.234000	0.050894
1.235000	0.053373
1.236000	0.053856
1.237000	0.052375
1.238000	0.049864
1.239000	0.046160
1.240000	0.041363
1.241000	0.038432
1.242000	0.034118
1.243000	0.032153
1.244000	0.031606
1.245000	0.033216
1.246000	0.035148
1.247000	0.038400
1.248000	0.042586
1.249000	0.047159
1.250000	0.050121
1.251000	0.053599
1.252000	0.055048
1.253000	0.055305
1.254000	0.053019
1.255000	0.050411
1.256000	0.046579
1.257000	0.041974
1.258000	0.038271
1.259000	0.035212
1.260000	0.033474
1.261000	0.032797
1.262000	0.035019
1.263000	0.037660
1.264000	0.040558
1.265000	0.045259
1.266000	0.049831
1.267000	0.053502
1.268000	0.055305
1.269000	0.057076
1.270000	0.055917
1.271000	0.053116
1.272000	0.049960
1.273000	0.045710
1.274000	0.041363
1.275000	0.038497
1.276000	0.035728
1.277000	0.034407
1.278000	0.034826
1.279000	0.036661
1.280000	0.039592
1.281000	0.043262
1.282000	0.047803
1.283000	0.051924
1.284000	0.054887
1.285000	0.057109
1.286000	0.058042
1.287000	0.055853
1.288000	0.053116
1.289000	0.050443
1.290000	0.045581
1.291000	0.041974
1.292000	0.038239
1.293000	0.036243
1.294000	0.035663
1.295000	0.036597
1.296000	0.038851
1.297000	0.041910
1.298000	0.045838
1.299000	0.050733
1.300000	0.054436
1.301000	0.057109
1.302000	0.058590
1.303000	0.058590
1.304000	0.056754
1.305000	0.053309
1.306000	0.049992
1.307000	0.045677
1.308000	0.042168
1.309000	0.038593
1.310000	0.037016
1.311000	0.036275
1.312000	0.037949
1.313000	0.041202
1.314000	0.044454
1.315000	0.048865
1.316000	0.053212
1.317000	0.055982
1.318000	0.058719
1.319000	0.060168
1.320000	0.058686
1.321000	0.056239
1.322000	0.053470
1.323000	0.049606
1.324000	0.044744
1.325000	0.041008
1.326000	0.038754
1.327000	0.037209
1.328000	0.037466
1.329000	0.039366
1.330000	0.042425
1.331000	0.046257
1.332000	0.050958
1.333000	0.054243
1.334000	0.058139
1.335000	0.059781
1.336000	0.060168
1.337000	0.058880
1.338000	0.056304
1.339000	0.052762
1.340000	0.048898
1.341000	0.043874
1.342000	0.040880
1.343000	0.038626
1.344000	0.037595
1.345000	0.038915
1.346000	0.041330
1.347000	0.043906
1.348000	0.048318
1.349000	0.052504
1.350000	0.056561
1.351000	0.059363
1.352000	0.060779
1.353000	0.060425
1.354000	0.058364
1.355000	0.055595
1.356000	0.051313
1.357000	0.047287
1.358000	0.043488
1.359000	0.040300
1.360000	0.038336
1.361000	0.038014
1.362000	0.039173
1.363000	0.041588
1.364000	0.045613
1.365000	0.050025
1.366000	0.054146
1.367000	0.057559
1.368000	0.060007
1.369000	0.060490
1.370000	0.059524
1.371000	0.057463
1.372000	0.053985
1.373000	0.049509
1.374000	0.045227
1.375000	0.041942
1.376000	0.038883
1.377000	0.037466
1.378000	0.037627
1.379000	0.039559
1.380000	0.042264
1.381000	0.046450
1.382000	0.050475
1.383000	0.053921
1.384000	0.057656
1.385000	0.059298
1.386000	0.059363
1.387000	0.058010
1.388000	0.055241
1.389000	0.052085
1.390000	0.047803
1.391000	0.043423
1.392000	0.040300
1.393000	0.037917
1.394000	0.037434
1.395000	0.037949
1.396000	0.040171
1.397000	0.043101
1.398000	0.047513
1.399000	0.052021
1.400000	0.055209
1.401000	0.058590
1.402000	0.060071
1.403000	0.059652
1.404000	0.057237
1.405000	0.054822
1.406000	0.051184
1.407000	0.046450
1.408000	0.042618
1.409000	0.039431
1.410000	0.038046
1.411000	0.037209
1.412000	0.038948
1.413000	0.041652
1.414000	0.045323
1.415000	0.049155
1.416000	0.053212
1.417000	0.056915
1.418000	0.059749
1.419000	0.059910
1.420000	0.059491
1.421000	0.056851
1.422000	0.054017
1.423000	0.049574
1.424000	0.045259
1.425000	0.041910
1.426000	0.039109
1.427000	0.037531
1.428000	0.037209
1.429000	0.039720
1.430000	0.043327
1.431000	0.046354
1.432000	0.050830
1.433000	0.054822
1.434000	0.057849
1.435000	0.060007
1.436000	0.060940
1.437000	0.059524
1.438000	0.056175
1.439000	0.053212
1.440000	0.048962
1.441000	0.044067
1.442000	0.040815
1.443000	0.039431
1.444000	0.037563
1.445000	0.038948
1.446000	0.042039
1.447000	0.044550
1.448000	0.048221
1.449000	0.053631
1.450000	0.056787
1.451000	0.060264
1.452000	0.061262
1.453000	0.062035
1.454000	0.059652
1.455000	0.056497
1.456000	0.052826
1.457000	0.048575
1.458000	0.044486
1.459000	0.041169
1.460000	0.039559
1.461000	0.039141
1.462000	0.040686
1.463000	0.043745
1.464000	0.046804
1.465000	0.051699
1.466000	0.055853
1.467000	0.059266
1.468000	0.061391
1.469000	0.062840
1.470000	0.062293
1.471000	0.059942
1.472000	0.056368
1.473000	0.052601
1.474000	0.048060
1.475000	0.044518
1.476000	0.041974
1.477000	0.040783
1.478000	0.040300
1.479000	0.042554
1.480000	0.045066
1.481000	0.049574
1.482000	0.054243
1.483000	0.057720
1.484000	0.061391
1.485000	0.063677
1.486000	0.063935
1.487000	0.062454
1.488000	0.059556
1.489000	0.056465
1.490000	0.052085
1.491000	0.048221
1.492000	0.044615
1.493000	0.042425
1.494000	0.041749
1.495000	0.042361
1.496000	0.044808
1.497000	0.047770
1.498000	0.052021
1.499000	0.056368
1.500000	0.060039
1.501000	0.063130
1.502000	0.064676
1.503000	0.064676
1.504000	0.062583
1.505000	0.059491
1.506000	0.055821
1.507000	0.051538
1.508000	0.048060
1.509000	0.044744
1.510000	0.042683
1.511000	0.043230
1.512000	0.043939
1.513000	0.046611
1.514000	0.049767
1.515000	0.054758
1.516000	0.058590
1.517000	0.061971
1.518000	0.064579
1.519000	0.065255
1.520000	0.064837
1.521000	0.062422
1.522000	0.059524
1.523000	0.055756
1.524000	0.051184
1.525000	0.048125
1.526000	0.045033
1.527000	0.044100
1.528000	0.043391
1.529000	0.045355
1.530000	0.048286
1.531000	0.052182
1.532000	0.056658
1.533000	0.060393
1.534000	0.064547
1.535000	0.065932
1.536000	0.066511
1.537000	0.065062
1.538000	0.062647
1.539000	0.059266
1.540000	0.054822
1.541000	0.050701
1.542000	0.046901
1.543000	0.045291
1.544000	0.043842
1.545000	0.044776
1.546000	0.047352
1.547000	0.050025
1.548000	0.054597
1.549000	0.059298
1.550000	0.062679
1.551000	0.065030
1.552000	0.067574
1.553000	0.067348
1.554000	0.065159
1.555000	0.062840
1.556000	0.058364
1.557000	0.054178
1.558000	0.050797
1.559000	0.046965
1.560000	0.044550
1.561000	0.044711
1.562000	0.046193
1.563000	0.048865
1.564000	0.052407
1.565000	0.056980
1.566000	0.061262
1.567000	0.064643
1.568000	0.067123
1.569000	0.068379
1.570000	0.067606
1.571000	0.064708
1.572000	0.061971
1.573000	0.057527
1.574000	0.053084
1.575000	0.050218
1.576000	0.047255
1.577000	0.045677
1.578000	0.045388
1.579000	0.047835
1.580000	0.050121
1.581000	0.054275
1.582000	0.058976
1.583000	0.062550
1.584000	0.065932
1.585000	0.068347
1.586000	0.068669
1.587000	0.067220
1.588000	0.064160
1.589000	0.061166
1.590000	0.056851
1.591000	0.052504
1.592000	0.049316
1.593000	0.046998
1.594000	0.046321
1.595000	0.046418
1.596000	0.049284
1.597000	0.052150
1.598000	0.056465
1.599000	0.061423
1.600000	0.064064
1.601000	0.067542
1.602000	0.069602
1.603000	0.069119
1.604000	0.067574
1.605000	0.065384
1.606000	0.060973
1.607000	0.056465
1.608000	0.052762
1.609000	0.049703
1.610000	0.047835
1.611000	0.046772
1.612000	0.048672
1.613000	0.051409
1.614000	0.054726
1.615000	0.058944
1.616000	0.063613
1.617000	0.067059
1.618000	0.069023
1.619000	0.070536
1.620000	0.069699
1.621000	0.067284
1.622000	0.064869
1.623000	0.060168
1.624000	0.055821
1.625000	0.052633
1.626000	0.049477
1.627000	0.047770
1.628000	0.047931
1.629000	0.050186
1.630000	0.052890
1.631000	0.056819
1.632000	0.061520
1.633000	0.065062
1.634000	0.068347
1.635000	0.070665
1.636000	0.071373
1.637000	0.069796
1.638000	0.067252
1.639000	0.064418
1.640000	0.059813
1.641000	0.055305
1.642000	0.051635
1.643000	0.049960
1.644000	0.048736
1.645000	0.049284
1.646000	0.052472
1.647000	0.055177
1.648000	0.058686
1.649000	0.063935
1.650000	0.067155
1.651000	0.069892
1.652000	0.071856
1.653000	0.072275
1.654000	0.070536
1.655000	0.067155
1.656000	0.063549
1.657000	0.059169
1.658000	0.055016
1.659000	0.051989
1.660000	0.050025
1.661000	0.050121
1.662000	0.050733
1.663000	0.054211
1.664000	0.056948
1.665000	0.061069
1.666000	0.066350
1.667000	0.069667
1.668000	0.071567
1.669000	0.073434
1.670000	0.072533
1.671000	0.070053
1.672000	0.066704
1.673000	0.063420
1.674000	0.058300
1.675000	0.055402
1.676000	0.052407
1.677000	0.050636
1.678000	0.050733
1.679000	0.052536
1.680000	0.056046
1.681000	0.059427
1.682000	0.064321
1.683000	0.068282
1.684000	0.071373
1.685000	0.073466
1.686000	0.074304
1.687000	0.072887
1.688000	0.070536
1.689000	0.066801
1.690000	0.062872
1.691000	0.058461
1.692000	0.054919
1.693000	0.053084
1.694000	0.051667
1.695000	0.052472
1.696000	0.054758
1.697000	0.058010
1.698000	0.062035
1.699000	0.066833
1.700000	0.070697
1.701000	0.073466
1.702000	0.074980
1.703000	0.075656
1.704000	0.073370
1.705000	0.070118
1.706000	0.067091
1.707000	0.062550
1.708000	0.058429
1.709000	0.054855
1.710000	0.053212
1.711000	0.053245
1.712000	0.054017
1.713000	0.057431
1.714000	0.060618
1.715000	0.064708
1.716000	0.069313
1.717000	0.072887
1.718000	0.074980
1.719000	0.076203
1.720000	0.075624
1.721000	0.073627
1.722000	0.070890
1.723000	0.066254
1.724000	0.062100
1.725000	0.058010
1.726000	0.055499
1.727000	0.054275
1.728000	0.054017
1.729000	0.055756
1.730000	0.058751
1.731000	0.062840
1.732000	0.067091
1.733000	0.071148
1.734000	0.074915
1.735000	0.076525
1.736000	0.077073
1.737000	0.076075
1.738000	0.073112
1.739000	0.070150
1.740000	0.065481
1.741000	0.061230
1.742000	0.058107
1.743000	0.055595
1.744000	0.054919
1.745000	0.055338
1.746000	0.057173
1.747000	0.060135
1.748000	0.064740
1.749000	0.069216
1.750000	0.072629
1.751000	0.075881
1.752000	0.077266
1.753000	0.077330
1.754000	0.076107
1.755000	0.073241
1.756000	0.069248
1.757000	0.064933
1.758000	0.061456
1.759000	0.057881
1.760000	0.055338
1.761000	0.055434
1.762000	0.056304
1.763000	0.059266
1.764000	0.062840
1.765000	0.067252
1.766000	0.071631
1.767000	0.074883
1.768000	0.077427
1.769000	0.078844
1.770000	0.078425
1.771000	0.075946
1.772000	0.073209
1.773000	0.069184
1.774000	0.064579
1.775000	0.060973
1.776000	0.057914
1.777000	0.056175
1.778000	0.056626
1.779000	0.058429
1.780000	0.061198
1.781000	0.064740
1.782000	0.069667
1.783000	0.074110
1.784000	0.076847
1.785000	0.079488
1.786000	0.080357
1.787000	0.078457
1.788000	0.075946
1.789000	0.072726
1.790000	0.068411
1.791000	0.064515
1.792000	0.061069
1.793000	0.058461
1.794000	0.057270
1.795000	0.058203
1.796000	0.060361
1.797000	0.063806
1.798000	0.068379
1.799000	0.072726
1.800000	0.075881
1.801000	0.079745
1.802000	0.081581
1.803000	0.081420
1.804000	0.079198
1.805000	0.076686
1.806000	0.073080
1.807000	0.068379
1.808000	0.064225
1.809000	0.061005
1.810000	0.059652
1.811000	0.059266
1.812000	0.060683
1.813000	0.063001
1.814000	0.066479
1.815000	0.071116
1.816000	0.075656
1.817000	0.078812
1.818000	0.081967
1.819000	0.083127
1.820000	0.082225
1.821000	0.080615
1.822000	0.077395
1.823000	0.073305
1.824000	0.068830
1.825000	0.065609
1.826000	0.062808
1.827000	0.061069
1.828000	0.061906
1.829000	0.063645
1.830000	0.066769
1.831000	0.070472
1.832000	0.075205
1.833000	0.079713
1.834000	0.082837
1.835000	0.085123
1.836000	0.085574
1.837000	0.085252
1.838000	0.082064
1.839000	0.079842
1.840000	0.075914
1.841000	0.071051
1.842000	0.068669
1.843000	0.066318
1.844000	0.064837
1.845000	0.066318
1.846000	0.069184
1.847000	0.071567
1.848000	0.076300
1.849000	0.080840
1.850000	0.084511
1.851000	0.088987
1.852000	0.090082
1.853000	0.090050
1.854000	0.088890
1.855000	0.085638
1.856000	0.083159
1.857000	0.078425
1.858000	0.073885
1.859000	0.071534
1.860000	0.069667
1.861000	0.069699
1.862000	0.071051
1.863000	0.073821
1.864000	0.076976
1.865000	0.081935
1.866000	0.086604
1.867000	0.089792
1.868000	0.092368
1.869000	0.094203
1.870000	0.093817
1.871000	0.091531
1.872000	0.088472
1.873000	0.084382
1.874000	0.080647
1.875000	0.076912
1.876000	0.073885
1.877000	0.072790
1.878000	0.072855
1.879000	0.074787
1.880000	0.078425
1.881000	0.081935
1.882000	0.086958
1.883000	0.091531
1.884000	0.094300
1.885000	0.096715
1.886000	0.097842
1.887000	0.096490
1.888000	0.094042
1.889000	0.090790
1.890000	0.086604
1.891000	0.082321
1.892000	0.079359
1.893000	0.076815
1.894000	0.075688
1.895000	0.076751
1.896000	0.078940
1.897000	0.082321
1.898000	0.086475
1.899000	0.091531
1.900000	0.095073
1.901000	0.098454
1.902000	0.099516
1.903000	0.099903
1.904000	0.098067
1.905000	0.095234
1.906000	0.091756
1.907000	0.087345
1.908000	0.083771
1.909000	0.080583
1.910000	0.078683
1.911000	0.078844
1.912000	0.080196
1.913000	0.082289
1.914000	0.085670
1.915000	0.090372
1.916000	0.094525
1.917000	0.098196
1.918000	0.100901
1.919000	0.101996
1.920000	0.101674
1.921000	0.099420
1.922000	0.096844
1.923000	0.092336
1.924000	0.088504
1.925000	0.084833
1.926000	0.081903
1.927000	0.080647
1.928000	0.080583
1.929000	0.082450
1.930000	0.085252
1.931000	0.089051
1.932000	0.093688
1.933000	0.097198
1.934000	0.101094
1.935000	0.103059
1.936000	0.103220
1.937000	0.102704
1.938000	0.100096
1.939000	0.097198
1.940000	0.092529
1.941000	0.088375
1.942000	0.085509
1.943000	0.083223
1.944000	0.081516
1.945000	0.082611
1.946000	0.085187
1.947000	0.088568
1.948000	0.092078
1.949000	0.096457
1.950000	0.100483
1.951000	0.103864
1.952000	0.105377
1.953000	0.105441
1.954000	0.103574
1.955000	0.100708
1.956000	0.097488
1.957000	0.092819
1.958000	0.089277
1.959000	0.085960
1.960000	0.083899
1.961000	0.083513
1.962000	0.084447
1.963000	0.087184
1.964000	0.091499
1.965000	0.095266
1.966000	0.099645
1.967000	0.102318
1.968000	0.105538
1.969000	0.107309
1.970000	0.106504
1.971000	0.104218
1.972000	0.101255
1.973000	0.097101
1.974000	0.092915
1.975000	0.088955
1.976000	0.086089
1.977000	0.084350
1.978000	0.085059
1.979000	0.087023
1.980000	0.089245
1.981000	0.093044
1.982000	0.097778
1.983000	0.102060
1.984000	0.105216
1.985000	0.107245
1.986000	0.107921
1.987000	0.106568
1.988000	0.104282
1.989000	0.101159
1.990000	0.096779
1.991000	0.093044
1.992000	0.089792
1.993000	0.086604
1.994000	0.085348
1.995000	0.086025
1.996000	0.088407
1.997000	0.091595
1.998000	0.095781
1.999000	0.100644
2.000000	0.103767
2.001000	0.107373
2.002000	0.109177
2.003000	0.109080
2.004000	0.107051
2.005000	0.104282
2.006000	0.101255
2.007000	0.096618
2.008000	0.092432
2.009000	0.089438
2.010000	0.087570
2.011000	0.086797
2.012000	0.087796
2.013000	0.090404
2.014000	0.093592
2.015000	0.098422
2.016000	0.102801
2.017000	0.105796
2.018000	0.108629
2.019000	0.110529
2.020000	0.109273
2.021000	0.107502
2.022000	0.104282
2.023000	0.100483
2.024000	0.096264
2.025000	0.091821
2.026000	0.089341
2.027000	0.088246
2.028000	0.087957
2.029000	0.090275
2.030000	0.092497
2.031000	0.096296
2.032000	0.100644
2.033000	0.104797
2.034000	0.108275
2.035000	0.110078
2.036000	0.110787
2.037000	0.109885
2.038000	0.107760
2.039000	0.104347
2.040000	0.100128
2.041000	0.096007
2.042000	0.091595
2.043000	0.090114
2.044000	0.088826
2.045000	0.089148
2.046000	0.092078
2.047000	0.094783
2.048000	0.099162
2.049000	0.102865
2.050000	0.106536
2.051000	0.110143
2.052000	0.111463
2.053000	0.111656
2.054000	0.110046
2.055000	0.107631
2.056000	0.103928
2.057000	0.099323
2.058000	0.095588
2.059000	0.092658
2.060000	0.090372
2.061000	0.089534
2.062000	0.091112
2.063000	0.093527
2.064000	0.096908
2.065000	0.100933
2.066000	0.105248
2.067000	0.109370
2.068000	0.111495
2.069000	0.112654
2.070000	0.112686
2.071000	0.110175
2.072000	0.106955
2.073000	0.103026
2.074000	0.098583
2.075000	0.094783
2.076000	0.092207
2.077000	0.090726
2.078000	0.090500
2.079000	0.092014
2.080000	0.095556
2.081000	0.098744
2.082000	0.103091
2.083000	0.107599
2.084000	0.110143
2.085000	0.112783
2.086000	0.113556
2.087000	0.112815
2.088000	0.109853
2.089000	0.106536
2.090000	0.102157
2.091000	0.098003
2.092000	0.094139
2.093000	0.092175
2.094000	0.090597
2.095000	0.091177
2.096000	0.093463
2.097000	0.096586
2.098000	0.100418
2.099000	0.104926
2.100000	0.108951
2.101000	0.111559
2.102000	0.113266
2.103000	0.113266
2.104000	0.111946
2.105000	0.108919
2.106000	0.105409
2.107000	0.100933
2.108000	0.097037
2.109000	0.093881
2.110000	0.090822
2.111000	0.090694
2.112000	0.091531
2.113000	0.094139
2.114000	0.097649
2.115000	0.101932
2.116000	0.106633
2.117000	0.110143
2.118000	0.112686
2.119000	0.114007
2.120000	0.113491
2.121000	0.110658
2.122000	0.107889
2.123000	0.103220
2.124000	0.099162
2.125000	0.095395
2.126000	0.092207
2.127000	0.090726
2.128000	0.090919
2.129000	0.092465
2.130000	0.095266
2.131000	0.098840
2.132000	0.102930
2.133000	0.106826
2.134000	0.110336
2.135000	0.112654
2.136000	0.113556
2.137000	0.112268
2.138000	0.110078
2.139000	0.106311
2.140000	0.101996
2.141000	0.097423
2.142000	0.094203
2.143000	0.091209
2.144000	0.089889
2.145000	0.090887
2.146000	0.093044
2.147000	0.096296
2.148000	0.100289
2.149000	0.104411
2.150000	0.107631
2.151000	0.111012
2.152000	0.113202
2.153000	0.113202
2.154000	0.111270
2.155000	0.108726
2.156000	0.105409
2.157000	0.100322
2.158000	0.097262
2.159000	0.093302
2.160000	0.091112
2.161000	0.090339
2.162000	0.091949
2.163000	0.094622
2.164000	0.097295
2.165000	0.101996
2.166000	0.106053
2.167000	0.109402
2.168000	0.112300
2.169000	0.113330
2.170000	0.113105
2.171000	0.110497
2.172000	0.107728
2.173000	0.104089
2.174000	0.099323
2.175000	0.095556
2.176000	0.093237
2.177000	0.090855
2.178000	0.091112
2.179000	0.093012
2.180000	0.095459
2.181000	0.098969
2.182000	0.103767
2.183000	0.107728
2.184000	0.110626
2.185000	0.113041
2.186000	0.114715
2.187000	0.113137
2.188000	0.109756
2.189000	0.107084
2.190000	0.102415
2.191000	0.098293
2.192000	0.094944
2.193000	0.091595
2.194000	0.091177
2.195000	0.091595
2.196000	0.094171
2.197000	0.096683
2.198000	0.100644
2.199000	0.105667
2.200000	0.108983
2.201000	0.112042
2.202000	0.113813
2.203000	0.114361
2.204000	0.112622
2.205000	0.109499
2.206000	0.106665
2.207000	0.101674
2.208000	0.097198
2.209000	0.094171
2.210000	0.091885
2.211000	0.091209
2.212000	0.092561
2.213000	0.095781
2.214000	0.098679
2.215000	0.102865
2.216000	0.107438
2.217000	0.110819
2.218000	0.113008
2.219000	0.114586
2.220000	0.114393
2.221000	0.112493
2.222000	0.109305
2.223000	0.105248
2.224000	0.100740
2.225000	0.096779
2.226000	0.094719
2.227000	0.092980
2.228000	0.092561
2.229000	0.093978
2.230000	0.097069
2.231000	0.100515
2.232000	0.105280
2.233000	0.109241
2.234000	0.112654
2.235000	0.114425
2.236000	0.116164
2.237000	0.114876
2.238000	0.112139
2.239000	0.108275
2.240000	0.104701
2.241000	0.100515
2.242000	0.096232
2.243000	0.094751
2.244000	0.093334
2.245000	0.093334
2.246000	0.095008
2.247000	0.098937
2.248000	0.101932
2.249000	0.106858
2.250000	0.111044
2.251000	0.113749
2.252000	0.115456
2.253000	0.116035
2.254000	0.114296
2.255000	0.111817
2.256000	0.108017
2.257000	0.104153
2.258000	0.099355
2.259000	0.096618
2.260000	0.094429
2.261000	0.093463
2.262000	0.094976
2.263000	0.097391
2.264000	0.100386
2.265000	0.104540
2.266000	0.108597
2.267000	0.113073
2.268000	0.115134
2.269000	0.116422
2.270000	0.116872
2.271000	0.113588
2.272000	0.110529
2.273000	0.107180
2.274000	0.102672
2.275000	0.099484
2.276000	0.095813
2.277000	0.094493
2.278000	0.094525
2.279000	0.095846
2.280000	0.098905
2.281000	0.102543
2.282000	0.107019
2.283000	0.111559
2.284000	0.114457
2.285000	0.116937
2.286000	0.117742
2.287000	0.116647
2.288000	0.114200
2.289000	0.110948
2.290000	0.106858
2.291000	0.102672
2.292000	0.098840
2.293000	0.096554
2.294000	0.095491
2.295000	0.095685
2.296000	0.097649
2.297000	0.101094
2.298000	0.104991
2.299000	0.109531
2.300000	0.113363
2.301000	0.116422
2.302000	0.117710
2.303000	0.118418
2.304000	0.117033
2.305000	0.114264
2.306000	0.110561
2.307000	0.106858
2.308000	0.102028
2.309000	0.099162
2.310000	0.097069
2.311000	0.095717
2.312000	0.097037
2.313000	0.099742
2.314000	0.102898
2.315000	0.107373
2.316000	0.111785
2.317000	0.114973
2.318000	0.118161
2.319000	0.118837
2.320000	0.118611
2.321000	0.116711
2.322000	0.113620
2.323000	0.109885
2.324000	0.104862
2.325000	0.101191
2.326000	0.098583
2.327000	0.097134
2.328000	0.096457
2.329000	0.098357
2.330000	0.100837
2.331000	0.104830
2.332000	0.109273
2.333000	0.113169
2.334000	0.116389
2.335000	0.119127
2.336000	0.119835
2.337000	0.118740
2.338000	0.116518
2.339000	0.113169
2.340000	0.108822
2.341000	0.104347
2.342000	0.100837
2.343000	0.098550
2.344000	0.097423
2.345000	0.098164
2.346000	0.100000
2.347000	0.102769
2.348000	0.106697
2.349000	0.111463
2.350000	0.115005
2.351000	0.118064
2.352000	0.119288
2.353000	0.120511
2.354000	0.118772
2.355000	0.116003
2.356000	0.112558
2.357000	0.107760
2.358000	0.104025
2.359000	0.100644
2.360000	0.098389
2.361000	0.097906
2.362000	0.099001
2.363000	0.101320
2.364000	0.104604
2.365000	0.109305
2.366000	0.113524
2.367000	0.116583
2.368000	0.119191
2.369000	0.121059
2.370000	0.120511
2.371000	0.118354
2.372000	0.115617
2.373000	0.111785
2.374000	0.107309
2.375000	0.103606
2.376000	0.100515
2.377000	0.098840
2.378000	0.098840
2.379000	0.100096
2.380000	0.102994
2.381000	0.106601
2.382000	0.111817
2.383000	0.115520
2.384000	0.118708
2.385000	0.121123
2.386000	0.121992
2.387000	0.121026
2.388000	0.118386
2.389000	0.115166
2.390000	0.110754
2.391000	0.106472
2.392000	0.103220
2.393000	0.100772
2.394000	0.099001
2.395000	0.100161
2.396000	0.102189
2.397000	0.104830
2.398000	0.109016
2.399000	0.113524
2.400000	0.117388
2.401000	0.120189
2.402000	0.122733
2.403000	0.122282
2.404000	0.120672
2.405000	0.118611
2.406000	0.114715
2.407000	0.110110
2.408000	0.106118
2.409000	0.102865
2.410000	0.100740
2.411000	0.099420
2.412000	0.101030
2.413000	0.103606
2.414000	0.107019
2.415000	0.111431
2.416000	0.115842
2.417000	0.118837
2.418000	0.122186
2.419000	0.123055
2.420000	0.123216
2.421000	0.120640
2.422000	0.118225
2.423000	0.113588
2.424000	0.109338
2.425000	0.105957
2.426000	0.102865
2.427000	0.101255
2.428000	0.100708
2.429000	0.102833
2.430000	0.105699
2.431000	0.109273
2.432000	0.113427
2.433000	0.117839
2.434000	0.121155
2.435000	0.123538
2.436000	0.124601
2.437000	0.123409
2.438000	0.121316
2.439000	0.117935
2.440000	0.113749
2.441000	0.109177
2.442000	0.106311
2.443000	0.103703
2.444000	0.102833
2.445000	0.102479
2.446000	0.104797
2.447000	0.107953
2.448000	0.111463
2.449000	0.117066
2.450000	0.120254
2.451000	0.122830
2.452000	0.125760
2.453000	0.126114
2.454000	0.124182
2.455000	0.121606
2.456000	0.118515
2.457000	0.113491
2.458000	0.109756
2.459000	0.106504
2.460000	0.104314
2.461000	0.103574
2.462000	0.105119
2.463000	0.107470
2.464000	0.110754
2.465000	0.115101
2.466000	0.119545
2.467000	0.123023
2.468000	0.126146
2.469000	0.127305
2.470000	0.127209
2.471000	0.125245
2.472000	0.122089
2.473000	0.118322
2.474000	0.114490
2.475000	0.110368
2.476000	0.107663
2.477000	0.105860
2.478000	0.105957
2.479000	0.108178
2.480000	0.110561
2.481000	0.114168
2.482000	0.118644
2.483000	0.123409
2.484000	0.126822
2.485000	0.129463
2.486000	0.130203
2.487000	0.129398
2.488000	0.126790
2.489000	0.124150
2.490000	0.120479
2.491000	0.116228
2.492000	0.112493
2.493000	0.110465
2.494000	0.109305
2.495000	0.109112
2.496000	0.112397
2.497000	0.115327
2.498000	0.119030
2.499000	0.123570
2.500000	0.127756
2.501000	0.131137
2.502000	0.132844
2.503000	0.133713
2.504000	0.132071
2.505000	0.129366
2.506000	0.126372
2.507000	0.122025
2.508000	0.117806
2.509000	0.114296
2.510000	0.112912
2.511000	0.112139
2.512000	0.113073
2.513000	0.116100
2.514000	0.119255
2.515000	0.123345
2.516000	0.128207
2.517000	0.132071
2.518000	0.134550
2.519000	0.136289
2.520000	0.136354
2.521000	0.134389
2.522000	0.131717
2.523000	0.127788
2.524000	0.123248
2.525000	0.119642
2.526000	0.116486
2.527000	0.115359
2.528000	0.114812
2.529000	0.116325
2.530000	0.119932
2.531000	0.123441
2.532000	0.127949
2.533000	0.132651
2.534000	0.136193
2.535000	0.138382
2.536000	0.138801
2.537000	0.138125
2.538000	0.136193
2.539000	0.133069
2.540000	0.129237
2.541000	0.124343
2.542000	0.121220
2.543000	0.118805
2.544000	0.117484
2.545000	0.117935
2.546000	0.120060
2.547000	0.123280
2.548000	0.126822
2.549000	0.131588
2.550000	0.135645
2.551000	0.139220
2.552000	0.140797
2.553000	0.141763
2.554000	0.139896
2.555000	0.136966
2.556000	0.133423
2.557000	0.129109
2.558000	0.125567
2.559000	0.122121
2.560000	0.119674
2.561000	0.119642
2.562000	0.120254
2.563000	0.122508
2.564000	0.126307
2.565000	0.130558
2.566000	0.135034
2.567000	0.138672
2.568000	0.140830
2.569000	0.143116
2.570000	0.142568
2.571000	0.140797
2.572000	0.137738
2.573000	0.134518
2.574000	0.129849
2.575000	0.126146
2.576000	0.122926
2.577000	0.121348
2.578000	0.121091
2.579000	0.122830
2.580000	0.125438
2.581000	0.129076
2.582000	0.133713
2.583000	0.137738
2.584000	0.141184
2.585000	0.143406
2.586000	0.144146
2.587000	0.144114
2.588000	0.141441
2.589000	0.138221
2.590000	0.133778
2.591000	0.129624
2.592000	0.126597
2.593000	0.123796
2.594000	0.122379
2.595000	0.123152
2.596000	0.124762
2.597000	0.127692
2.598000	0.131363
2.599000	0.136225
2.600000	0.139799
2.601000	0.143245
2.602000	0.145627
2.603000	0.146078
2.604000	0.144082
2.605000	0.142053
2.606000	0.138769
2.607000	0.134100
2.608000	0.129592
2.609000	0.126694
2.610000	0.124021
2.611000	0.123248
2.612000	0.125148
2.613000	0.127402
2.614000	0.130493
2.615000	0.134873
2.616000	0.139026
2.617000	0.142375
2.618000	0.145595
2.619000	0.147044
2.620000	0.146948
2.621000	0.145016
2.622000	0.142053
2.623000	0.138350
2.624000	0.133520
2.625000	0.130042
2.626000	0.126565
2.627000	0.124568
2.628000	0.124568
2.629000	0.126178
2.630000	0.129109
2.631000	0.132200
2.632000	0.137062
2.633000	0.141248
2.634000	0.145112
2.635000	0.147109
2.636000	0.148332
2.637000	0.147592
2.638000	0.144855
2.639000	0.141570
2.640000	0.137577
2.641000	0.132973
2.642000	0.130139
2.643000	0.127305
2.644000	0.125663
2.645000	0.126275
2.646000	0.127949
2.647000	0.131169
2.648000	0.135001
2.649000	0.139735
2.650000	0.143953
2.651000	0.146465
2.652000	0.149330
2.653000	0.149524
2.654000	0.147398
2.655000	0.145209
2.656000	0.142504
2.657000	0.137610
2.658000	0.132715
2.659000	0.129559
2.660000	0.127305
2.661000	0.126694
2.662000	0.127949
2.663000	0.130042
2.664000	0.133359
2.665000	0.137513
2.666000	0.142053
2.667000	0.145627
2.668000	0.148429
2.669000	0.149588
2.670000	0.149524
2.671000	0.147366
2.672000	0.145048
2.673000	0.140314
2.674000	0.136000
2.675000	0.132264
2.676000	0.129141
2.677000	0.127756
2.678000	0.127080
2.679000	0.129076
2.680000	0.131363
2.681000	0.134744
2.682000	0.138833
2.683000	0.143599
2.684000	0.146690
2.685000	0.149105
2.686000	0.150103
2.687000	0.149073
2.688000	0.146497
2.689000	0.143792
2.690000	0.139445
2.691000	0.135130
2.692000	0.131330
2.693000	0.128432
2.694000	0.127370
2.695000	0.127177
2.696000	0.129688
2.697000	0.132618
2.698000	0.136064
2.699000	0.140540
2.700000	0.143631
2.701000	0.147398
2.702000	0.148976
2.703000	0.150103
2.704000	0.148364
2.705000	0.145692
2.706000	0.142311
2.707000	0.137577
2.708000	0.133295
2.709000	0.129656
2.710000	0.127853
2.711000	0.126500
2.712000	0.127917
2.713000	0.130461
2.714000	0.133359
2.715000	0.137062
2.716000	0.141313
2.717000	0.145563
2.718000	0.148332
2.719000	0.149008
2.720000	0.149652
2.721000	0.147334
2.722000	0.143985
2.723000	0.140443
2.724000	0.134679
2.725000	0.132200
2.726000	0.128948
2.727000	0.126629
2.728000	0.126855
2.729000	0.128014
2.730000	0.130944
2.731000	0.134261
2.732000	0.138672
2.733000	0.143470
2.734000	0.146690
2.735000	0.148783
2.736000	0.150296
2.737000	0.148751
2.738000	0.146754
2.739000	0.143116
2.740000	0.139059
2.741000	0.134647
2.742000	0.130944
2.743000	0.127982
2.744000	0.127499
2.745000	0.126822
2.746000	0.129270
2.747000	0.132393
2.748000	0.135967
2.749000	0.140025
2.750000	0.144307
2.751000	0.147817
2.752000	0.149330
2.753000	0.150103
2.754000	0.148719
2.755000	0.146304
2.756000	0.141957
2.757000	0.137706
2.758000	0.133649
2.759000	0.130686
2.760000	0.127917
2.761000	0.127531
2.762000	0.128078
2.763000	0.130493
2.764000	0.133906
2.765000	0.137932
2.766000	0.142729
2.767000	0.145756
2.768000	0.148686
2.769000	0.150812
2.770000	0.150232
2.771000	0.148525
2.772000	0.145692
2.773000	0.141667
2.774000	0.137320
2.775000	0.133745
2.776000	0.130075
2.777000	0.128110
2.778000	0.128271
2.779000	0.129302
2.780000	0.131652
2.781000	0.136128
2.782000	0.140057
2.783000	0.143953
2.784000	0.147688
2.785000	0.150264
2.786000	0.150876
2.787000	0.150393
2.788000	0.147527
2.789000	0.144758
2.790000	0.140540
2.791000	0.135967
2.792000	0.132618
2.793000	0.129527
2.794000	0.128722
2.795000	0.128529
2.796000	0.130364
2.797000	0.133262
2.798000	0.137191
2.799000	0.141924
2.800000	0.145209
2.801000	0.148944
2.802000	0.150908
2.803000	0.151456
2.804000	0.149781
2.805000	0.146722
2.806000	0.143792
2.807000	0.139220
2.808000	0.135098
2.809000	0.131910
2.810000	0.129656
2.811000	0.128722
2.812000	0.130010
2.813000	0.132168
2.814000	0.135034
2.815000	0.139413
2.816000	0.143889
2.817000	0.147173
2.818000	0.150683
2.819000	0.151939
2.820000	0.151584
2.821000	0.149652
2.822000	0.147044
2.823000	0.142762
2.824000	0.138221
2.825000	0.134744
2.826000	0.131910
2.827000	0.129720
2.828000	0.129012
2.829000	0.131169
2.830000	0.133939
2.831000	0.136708
2.832000	0.141184
2.833000	0.145402
2.834000	0.149041
2.835000	0.151391
2.836000	0.152325
2.837000	0.151907
2.838000	0.149846
2.839000	0.146304
2.840000	0.142633
2.841000	0.137449
2.842000	0.134550
2.843000	0.131685
2.844000	0.130075
2.845000	0.130364
2.846000	0.132039
2.847000	0.135323
2.848000	0.139155
2.849000	0.143824
2.850000	0.147849
2.851000	0.150522
2.852000	0.152969
2.853000	0.153291
2.854000	0.151778
2.855000	0.148944
2.856000	0.145724
2.857000	0.141538
2.858000	0.137320
2.859000	0.134100
2.860000	0.131298
2.861000	0.130525
2.862000	0.131878
2.863000	0.134003
2.864000	0.137094
2.865000	0.141377
2.866000	0.146078
2.867000	0.149685
2.868000	0.152068
2.869000	0.154064
2.870000	0.153517
2.871000	0.151617
2.872000	0.149234
2.873000	0.145048
2.874000	0.140830
2.875000	0.137288
2.876000	0.134261
2.877000	0.131395
2.878000	0.131330
2.879000	0.133230
2.880000	0.135871
2.881000	0.139220
2.882000	0.143953
2.883000	0.148397
2.884000	0.151520
2.885000	0.153871
2.886000	0.155320
2.887000	0.153935
2.888000	0.152293
2.889000	0.148847
2.890000	0.145144
2.891000	0.140347
2.892000	0.137094
2.893000	0.134615
2.894000	0.133069
2.895000	0.132812
2.896000	0.135323
2.897000	0.138286
2.898000	0.142214
2.899000	0.146175
2.900000	0.150586
2.901000	0.153613
2.902000	0.156028
2.903000	0.156672
2.904000	0.154708
2.905000	0.152325
2.906000	0.149298
2.907000	0.144855
2.908000	0.140540
2.909000	0.137191
2.910000	0.135098
2.911000	0.134132
2.912000	0.135001
2.913000	0.138125
2.914000	0.140830
2.915000	0.144919
2.916000	0.149524
2.917000	0.153259
2.918000	0.156415
2.919000	0.157413
2.920000	0.158894
2.921000	0.155835
2.922000	0.153098
2.923000	0.149620
2.924000	0.145241
2.925000	0.141828
2.926000	0.138833
2.927000	0.137255
2.928000	0.136966
2.929000	0.138737
2.930000	0.141602
2.931000	0.144629
2.932000	0.149524
2.933000	0.154128
2.934000	0.157348
2.935000	0.159924
2.936000	0.160858
2.937000	0.160150
2.938000	0.157735
2.939000	0.155030
2.940000	0.151552
2.941000	0.146980
2.942000	0.143695
2.943000	0.140765
2.944000	0.139477
2.945000	0.139542
2.946000	0.141635
2.947000	0.145144
2.948000	0.149073
2.949000	0.153549
2.950000	0.157091
2.951000	0.160923
2.952000	0.162983
2.953000	0.163724
2.954000	0.162533
2.955000	0.159828
2.956000	0.156769
2.957000	0.152808
2.958000	0.148010
2.959000	0.144887
2.960000	0.142568
2.961000	0.141924
2.962000	0.142858
2.963000	0.145499
2.964000	0.148686
2.965000	0.152905
2.966000	0.157477
2.967000	0.160858
2.968000	0.164432
2.969000	0.166075
2.970000	0.165849
2.971000	0.164175
2.972000	0.161084
2.973000	0.157348
2.974000	0.153452
2.975000	0.149266
2.976000	0.146304
2.977000	0.144758
2.978000	0.144339
2.979000	0.145692
2.980000	0.149169
2.981000	0.152390
2.982000	0.156898
2.983000	0.161116
2.984000	0.164271
2.985000	0.167395
2.986000	0.168651
2.987000	0.167395
2.988000	0.165753
2.989000	0.162436
2.990000	0.158250
2.991000	0.153806
2.992000	0.150329
2.993000	0.148139
2.994000	0.146400
2.995000	0.146110
2.996000	0.148300
2.997000	0.151134
2.998000	0.155545
2.999000	0.159860
3.000000	0.163660
3.001000	0.167363
3.002000	0.169456
3.003000	0.170100
3.004000	0.168651
3.005000	0.166461
3.006000	0.163048
3.007000	0.158411
3.008000	0.154418
3.009000	0.151262
3.010000	0.149008
3.011000	0.147592
3.012000	0.148686
3.013000	0.151359
3.014000	0.154096
3.015000	0.158991
3.016000	0.162951
3.017000	0.167041
3.018000	0.169488
3.019000	0.171098
3.020000	0.171871
3.021000	0.169713
3.022000	0.166815
3.023000	0.163370
3.024000	0.158411
3.025000	0.155255
3.026000	0.151971
3.027000	0.149846
3.028000	0.149330
3.029000	0.151262
3.030000	0.153903
3.031000	0.156704
3.032000	0.161889
3.033000	0.166268
3.034000	0.170100
3.035000	0.171871
3.036000	0.172933
3.037000	0.172740
3.038000	0.169874
3.039000	0.167298
3.040000	0.162951
3.041000	0.158604
3.042000	0.155288
3.043000	0.152647
3.044000	0.151069
3.045000	0.151005
3.046000	0.153066
3.047000	0.156093
3.048000	0.160085
3.049000	0.164593
3.050000	0.168554
3.051000	0.171323
3.052000	0.173899
3.053000	0.174608
3.054000	0.172676
3.055000	0.170229
3.056000	0.167105
3.057000	0.162855
3.058000	0.158862
3.059000	0.154901
3.060000	0.152905
3.061000	0.152035
3.062000	0.152873
3.063000	0.155416
3.064000	0.158186
3.065000	0.162372
3.066000	0.166783
3.067000	0.170486
3.068000	0.173674
3.069000	0.174704
3.070000	0.175316
3.071000	0.173223
3.072000	0.170647
3.073000	0.166847
3.074000	0.162629
3.075000	0.158604
3.076000	0.155449
3.077000	0.153452
3.078000	0.152454
3.079000	0.153774
3.080000	0.157155
3.081000	0.160053
3.082000	0.164722
3.083000	0.168747
3.084000	0.172708
3.085000	0.175123
3.086000	0.176572
3.087000	0.175574
3.088000	0.173223
3.089000	0.170229
3.090000	0.165881
3.091000	0.162146
3.092000	0.158121
3.093000	0.154966
3.094000	0.154193
3.095000	0.153806
3.096000	0.155545
3.097000	0.158894
3.098000	0.162275
3.099000	0.167073
3.100000	0.170422
3.101000	0.174479
3.102000	0.176314
3.103000	0.176604
3.104000	0.175799
3.105000	0.172611
3.106000	0.169327
3.107000	0.164400
3.108000	0.160697
3.109000	0.157413
3.110000	0.154837
3.111000	0.154225
3.112000	0.154869
3.113000	0.156865
3.114000	0.159602
3.115000	0.163949
3.116000	0.168296
3.117000	0.172161
3.118000	0.174769
3.119000	0.176540
3.120000	0.176314
3.121000	0.174543
3.122000	0.171388
3.123000	0.167749
3.124000	0.162339
3.125000	0.159087
3.126000	0.155674
3.127000	0.153452
3.128000	0.153613
3.129000	0.154772
3.130000	0.157348
3.131000	0.160085
3.132000	0.164529
3.133000	0.169230
3.134000	0.172193
3.135000	0.174737
3.136000	0.176314
3.137000	0.175123
3.138000	0.172805
3.139000	0.169939
3.140000	0.166139
3.141000	0.161180
3.142000	0.158057
3.143000	0.154676
3.144000	0.153162
3.145000	0.153388
3.146000	0.155577
3.147000	0.158250
3.148000	0.161373
3.149000	0.166010
3.150000	0.170229
3.151000	0.173255
3.152000	0.175187
3.153000	0.176089
3.154000	0.174511
3.155000	0.171839
3.156000	0.168425
3.157000	0.164175
3.158000	0.159538
3.159000	0.156833
3.160000	0.155094
3.161000	0.153935
3.162000	0.153774
3.163000	0.155513
3.164000	0.159248
3.165000	0.162887
3.166000	0.167781
3.167000	0.171388
3.168000	0.174543
3.169000	0.176314
3.170000	0.176347
3.171000	0.173867
3.172000	0.171130
3.173000	0.167878
3.174000	0.163273
3.175000	0.159248
3.176000	0.155835
3.177000	0.154611
3.178000	0.153710
3.179000	0.154869
3.180000	0.158057
3.181000	0.160826
3.182000	0.164819
3.183000	0.169424
3.184000	0.172933
3.185000	0.175574
3.186000	0.176443
3.187000	0.176250
3.188000	0.173706
3.189000	0.170647
3.190000	0.166654
3.191000	0.162114
3.192000	0.158572
3.193000	0.155481
3.194000	0.153871
3.195000	0.154032
3.196000	0.156382
3.197000	0.159152
3.198000	0.162694
3.199000	0.167008
3.200000	0.171162
3.201000	0.174865
3.202000	0.176057
3.203000	0.177119
3.204000	0.175509
3.205000	0.173030
3.206000	0.169456
3.207000	0.165205
3.208000	0.161373
3.209000	0.157960
3.210000	0.155449
3.211000	0.154418
3.212000	0.154837
3.213000	0.157187
3.214000	0.160504
3.215000	0.164304
3.216000	0.169456
3.217000	0.172032
3.218000	0.175670
3.219000	0.177409
3.220000	0.177667
3.221000	0.175896
3.222000	0.172966
3.223000	0.169359
3.224000	0.164561
3.225000	0.160633
3.226000	0.157477
3.227000	0.155159
3.228000	0.155159
3.229000	0.155932
3.230000	0.158991
3.231000	0.162146
3.232000	0.166590
3.233000	0.171645
3.234000	0.174801
3.235000	0.176572
3.236000	0.178118
3.237000	0.178085
3.238000	0.175091
3.239000	0.172644
3.240000	0.168329
3.241000	0.163531
3.242000	0.160407
3.243000	0.157059
3.244000	0.155255
3.245000	0.155899
3.246000	0.157799
3.247000	0.160601
3.248000	0.164271
3.249000	0.169520
3.250000	0.173030
3.251000	0.175928
3.252000	0.179084
3.253000	0.179309
3.254000	0.177184
3.255000	0.174704
3.256000	0.172161
3.257000	0.167524
3.258000	0.163144
3.259000	0.160053
3.260000	0.157445
3.261000	0.156415
3.262000	0.157348
3.263000	0.159441
3.264000	0.162533
3.265000	0.166429
3.266000	0.171388
3.267000	0.174576
3.268000	0.177667
3.269000	0.179341
3.270000	0.179534
3.271000	0.177828
3.272000	0.174737
3.273000	0.171549
3.274000	0.166654
3.275000	0.162243
3.276000	0.159796
3.277000	0.157509
3.278000	0.157155
3.279000	0.158508
3.280000	0.161663
3.281000	0.164497
3.282000	0.168039
3.283000	0.173449
3.284000	0.176379
3.285000	0.178987
3.286000	0.180082
3.287000	0.179856
3.288000	0.177377
3.289000	0.174189
3.290000	0.170776
3.291000	0.165688
3.292000	0.162275
3.293000	0.159570
3.294000	0.157767
3.295000	0.157960
3.296000	0.159763
3.297000	0.162565
3.298000	0.166590
3.299000	0.170905
3.300000	0.175509
3.301000	0.178794
3.302000	0.180468
3.303000	0.181112
3.304000	0.180372
3.305000	0.177184
3.306000	0.174028
3.307000	0.169713
3.308000	0.165237
3.309000	0.162372
3.310000	0.159602
3.311000	0.158765
3.312000	0.159345
3.313000	0.161792
3.314000	0.164593
3.315000	0.168586
3.316000	0.173384
3.317000	0.176926
3.318000	0.180017
3.319000	0.181595
3.320000	0.181756
3.321000	0.180339
3.322000	0.177409
3.323000	0.173416
3.324000	0.168554
3.325000	0.164626
3.326000	0.161824
3.327000	0.159538
3.328000	0.159409
3.329000	0.160633
3.330000	0.163499
3.331000	0.167041
3.332000	0.171581
3.333000	0.175381
3.334000	0.179019
3.335000	0.181273
3.336000	0.182690
3.337000	0.181821
3.338000	0.180082
3.339000	0.177087
3.340000	0.172644
3.341000	0.168490
3.342000	0.164722
3.343000	0.161760
3.344000	0.161019
3.345000	0.160794
3.346000	0.162565
3.347000	0.165527
3.348000	0.169327
3.349000	0.174318
3.350000	0.177860
3.351000	0.181273
3.352000	0.184075
3.353000	0.184139
3.354000	0.183109
3.355000	0.180919
3.356000	0.178182
3.357000	0.173127
3.358000	0.169327
3.359000	0.166171
3.360000	0.163627
3.361000	0.162887
3.362000	0.163724
3.363000	0.165978
3.364000	0.168973
3.365000	0.173545
3.366000	0.177796
3.367000	0.181692
3.368000	0.184558
3.369000	0.186908
3.370000	0.186522
3.371000	0.185169
3.372000	0.182690
3.373000	0.179051
3.374000	0.174511
3.375000	0.170518
3.376000	0.167652
3.377000	0.166010
3.378000	0.165270
3.379000	0.166976
3.380000	0.169810
3.381000	0.173030
3.382000	0.177796
3.383000	0.181756
3.384000	0.185008
3.385000	0.188003
3.386000	0.189549
3.387000	0.188873
3.388000	0.187069
3.389000	0.184461
3.390000	0.180178
3.391000	0.175606
3.392000	0.171806
3.393000	0.169359
3.394000	0.168007
3.395000	0.167846
3.396000	0.169971
3.397000	0.172998
3.398000	0.176314
3.399000	0.181241
3.400000	0.185363
3.401000	0.189001
3.402000	0.191255
3.403000	0.191996
3.404000	0.190805
3.405000	0.188132
3.406000	0.184719
3.407000	0.180822
3.408000	0.176701
3.409000	0.173320
3.410000	0.171259
3.411000	0.169907
3.412000	0.170132
3.413000	0.173223
3.414000	0.176411
3.415000	0.180339
3.416000	0.185137
3.417000	0.188905
3.418000	0.191706
3.419000	0.193767
3.420000	0.194379
3.421000	0.192350
3.422000	0.189227
3.423000	0.186297
3.424000	0.181531
3.425000	0.177377
3.426000	0.174576
3.427000	0.172805
3.428000	0.172096
3.429000	0.173610
3.430000	0.176508
3.431000	0.179502
3.432000	0.184139
3.433000	0.188518
3.434000	0.192125
3.435000	0.194797
3.436000	0.195924
3.437000	0.195892
3.438000	0.193542
3.439000	0.190611
3.440000	0.186586
3.441000	0.181821
3.442000	0.178601
3.443000	0.175960
3.444000	0.173932
3.445000	0.174125
3.446000	0.176186
3.447000	0.179373
3.448000	0.183109
3.449000	0.187166
3.450000	0.191996
3.451000	0.194475
3.452000	0.196987
3.453000	0.198146
3.454000	0.196794
3.455000	0.194089
3.456000	0.190869
3.457000	0.186908
3.458000	0.182690
3.459000	0.179116
3.460000	0.177152
3.461000	0.175735
3.462000	0.176250
3.463000	0.178890
3.464000	0.181949
3.465000	0.186232
3.466000	0.190354
3.467000	0.194282
3.468000	0.197212
3.469000	0.198983
3.470000	0.199338
3.471000	0.197663
3.472000	0.194475
3.473000	0.191706
3.474000	0.186973
3.475000	0.182787
3.476000	0.179245
3.477000	0.177441
3.478000	0.177377
3.479000	0.178311
3.480000	0.180919
3.481000	0.184461
3.482000	0.188937
3.483000	0.193091
3.484000	0.196375
3.485000	0.198758
3.486000	0.199982
3.487000	0.199821
3.488000	0.198307
3.489000	0.194347
3.490000	0.190708
3.491000	0.186490
3.492000	0.182819
3.493000	0.179631
3.494000	0.178440
3.495000	0.177892
3.496000	0.180082
3.497000	0.182980
3.498000	0.186586
3.499000	0.190644
3.500000	0.195248
3.501000	0.198694
3.502000	0.200883
3.503000	0.201076
3.504000	0.200593
3.505000	0.197921
3.506000	0.194797
3.507000	0.190386
3.508000	0.186103
3.509000	0.182754
3.510000	0.180468
3.511000	0.178955
3.512000	0.179631
3.513000	0.181917
3.514000	0.184815
3.515000	0.189227
3.516000	0.193155
3.517000	0.197180
3.518000	0.200239
3.519000	0.201881
3.520000	0.202107
3.521000	0.200787
3.522000	0.198050
3.523000	0.193960
3.524000	0.189484
3.525000	0.185814
3.526000	0.182207
3.527000	0.180436
3.528000	0.179631
3.529000	0.181370
3.530000	0.183978
3.531000	0.187166
3.532000	0.191642
3.533000	0.195763
3.534000	0.199273
3.535000	0.201978
3.536000	0.203331
3.537000	0.203298
3.538000	0.200851
3.539000	0.197116
3.540000	0.193348
3.541000	0.189356
3.542000	0.185556
3.543000	0.182465
3.544000	0.181080
3.545000	0.180597
3.546000	0.182271
3.547000	0.185363
3.548000	0.188679
3.549000	0.193091
3.550000	0.197599
3.551000	0.201044
3.552000	0.202976
3.553000	0.203814
3.554000	0.202171
3.555000	0.200110
3.556000	0.196762
3.557000	0.192672
3.558000	0.187842
3.559000	0.184590
3.560000	0.182143
3.561000	0.180597
3.562000	0.181209
3.563000	0.183076
3.564000	0.186007
3.565000	0.190676
3.566000	0.195602
3.567000	0.198500
3.568000	0.201109
3.569000	0.203910
3.570000	0.203524
3.571000	0.201366
3.572000	0.199177
3.573000	0.195506
3.574000	0.190805
3.575000	0.186876
3.576000	0.183785
3.577000	0.180790
3.578000	0.180629
3.579000	0.181434
3.580000	0.184815
3.581000	0.187327
3.582000	0.192060
3.583000	0.195828
3.584000	0.199144
3.585000	0.201849
3.586000	0.203331
3.587000	0.203202
3.588000	0.200658
3.589000	0.197728
3.590000	0.193413
3.591000	0.188840
3.592000	0.185298
3.593000	0.182271
3.594000	0.179953
3.595000	0.180565
3.596000	0.182432
3.597000	0.185137
3.598000	0.188132
3.599000	0.193316
3.600000	0.197341
3.601000	0.200207
3.602000	0.202332
3.603000	0.203009
3.604000	0.202107
3.605000	0.199756
3.606000	0.196214
3.607000	0.191771
3.608000	0.187585
3.609000	0.184300
3.610000	0.181531
3.611000	0.180694
3.612000	0.180565
3.613000	0.183398
3.614000	0.186039
3.615000	0.190161
3.616000	0.194894
3.617000	0.198275
3.618000	0.201270
3.619000	0.203041
3.620000	0.203170
3.621000	0.201398
3.622000	0.199402
3.623000	0.196053
3.624000	0.191159
3.625000	0.186876
3.626000	0.184139
3.627000	0.182046
3.628000	0.180855
3.629000	0.182078
3.630000	0.184912
3.631000	0.187488
3.632000	0.191996
3.633000	0.196633
3.634000	0.199982
3.635000	0.201914
3.636000	0.204007
3.637000	0.203588
3.638000	0.201076
3.639000	0.198082
3.640000	0.194186
3.641000	0.189742
3.642000	0.186619
3.643000	0.183141
3.644000	0.181756
3.645000	0.181788
3.646000	0.183463
3.647000	0.186425
3.648000	0.189710
3.649000	0.193896
3.650000	0.198629
3.651000	0.201334
3.652000	0.203492
3.653000	0.204329
3.654000	0.203588
3.655000	0.200400
3.656000	0.197599
3.657000	0.193670
3.658000	0.189259
3.659000	0.185814
3.660000	0.183334
3.661000	0.181949
3.662000	0.181949
3.663000	0.185073
3.664000	0.188100
3.665000	0.191674
3.666000	0.195828
3.667000	0.200014
3.668000	0.203266
3.669000	0.204683
3.670000	0.205198
3.671000	0.203105
3.672000	0.200368
3.673000	0.196601
3.674000	0.193059
3.675000	0.188132
3.676000	0.185234
3.677000	0.183173
3.678000	0.182690
3.679000	0.183559
3.680000	0.186103
3.681000	0.189549
3.682000	0.193896
3.683000	0.198114
3.684000	0.201559
3.685000	0.204458
3.686000	0.206615
3.687000	0.205456
3.688000	0.203427
3.689000	0.200465
3.690000	0.196601
3.691000	0.192543
3.692000	0.188003
3.693000	0.184944
3.694000	0.183881
3.695000	0.183334
3.696000	0.185298
3.697000	0.188873
3.698000	0.191996
3.699000	0.196311
3.700000	0.199949
3.701000	0.203942
3.702000	0.206100
3.703000	0.206196
3.704000	0.205681
3.705000	0.202976
3.706000	0.200271
3.707000	0.195699
3.708000	0.191513
3.709000	0.187778
3.710000	0.185717
3.711000	0.183559
3.712000	0.184429
3.713000	0.186425
3.714000	0.190193
3.715000	0.193574
3.716000	0.198307
3.717000	0.201366
3.718000	0.205424
3.719000	0.206776
3.720000	0.206712
3.721000	0.205456
3.722000	0.202558
3.723000	0.199016
3.724000	0.194636
3.725000	0.190515
3.726000	0.187263
3.727000	0.185524
3.728000	0.184815
3.729000	0.185620
3.730000	0.188486
3.731000	0.191577
3.732000	0.196150
3.733000	0.199982
3.734000	0.202976
3.735000	0.205842
3.736000	0.207871
3.737000	0.207098
3.738000	0.205037
3.739000	0.202107
3.740000	0.198178
3.741000	0.193960
3.742000	0.190000
3.743000	0.187102
3.744000	0.185427
3.745000	0.185491
3.746000	0.186908
3.747000	0.190000
3.748000	0.193413
3.749000	0.197728
3.750000	0.201753
3.751000	0.205295
3.752000	0.207452
3.753000	0.208289
3.754000	0.207806
3.755000	0.204747
3.756000	0.201720
3.757000	0.197180
3.758000	0.193220
3.759000	0.190386
3.760000	0.187327
3.761000	0.186103
3.762000	0.186458
3.763000	0.188744
3.764000	0.191899
3.765000	0.195731
3.766000	0.200368
3.767000	0.203492
3.768000	0.207001
3.769000	0.209610
3.770000	0.208998
3.771000	0.207130
3.772000	0.204651
3.773000	0.201688
3.774000	0.196633
3.775000	0.192865
3.776000	0.189195
3.777000	0.187069
3.778000	0.186747
3.779000	0.188003
3.780000	0.190450
3.781000	0.193831
3.782000	0.197856
3.783000	0.202107
3.784000	0.205520
3.785000	0.208998
3.786000	0.210286
3.787000	0.209899
3.788000	0.207967
3.789000	0.204683
3.790000	0.200851
3.791000	0.196407
3.792000	0.192447
3.793000	0.189517
3.794000	0.187842
3.795000	0.187971
3.796000	0.189645
3.797000	0.192447
3.798000	0.196311
3.799000	0.200851
3.800000	0.204812
3.801000	0.208611
3.802000	0.210994
3.803000	0.211799
3.804000	0.210898
3.805000	0.208676
3.806000	0.205263
3.807000	0.201044
3.808000	0.196794
3.809000	0.193477
3.810000	0.191030
3.811000	0.190257
3.812000	0.190418
3.813000	0.192511
3.814000	0.196053
3.815000	0.200078
3.816000	0.204264
3.817000	0.208193
3.818000	0.211928
3.819000	0.213892
3.820000	0.213538
3.821000	0.212733
3.822000	0.210028
3.823000	0.205939
3.824000	0.202042
3.825000	0.198114
3.826000	0.194669
3.827000	0.193252
3.828000	0.191803
3.829000	0.193670
3.830000	0.196472
3.831000	0.199112
3.832000	0.203781
3.833000	0.208547
3.834000	0.212218
3.835000	0.214697
3.836000	0.216436
3.837000	0.216017
3.838000	0.214246
3.839000	0.211445
3.840000	0.207227
3.841000	0.202622
3.842000	0.199692
3.843000	0.196568
3.844000	0.194314
3.845000	0.195248
3.846000	0.196665
3.847000	0.199209
3.848000	0.202880
3.849000	0.207710
3.850000	0.212508
3.851000	0.215502
3.852000	0.217949
3.853000	0.219109
3.854000	0.217499
3.855000	0.215760
3.856000	0.212475
3.857000	0.208354
3.858000	0.203685
3.859000	0.201076
3.860000	0.198404
3.861000	0.196568
3.862000	0.197695
3.863000	0.200078
3.864000	0.202558
3.865000	0.206776
3.866000	0.211381
3.867000	0.214858
3.868000	0.218143
3.869000	0.220526
3.870000	0.221105
3.871000	0.219012
3.872000	0.216500
3.873000	0.213313
3.874000	0.209062
3.875000	0.204554
3.876000	0.201624
3.877000	0.199273
3.878000	0.198436
3.879000	0.199949
3.880000	0.202236
3.881000	0.205359
3.882000	0.210060
3.883000	0.214214
3.884000	0.217563
3.885000	0.220719
3.886000	0.223005
3.887000	0.222522
3.888000	0.219785
3.889000	0.217338
3.890000	0.213377
3.891000	0.208740
3.892000	0.205198
3.893000	0.201849
3.894000	0.199821
3.895000	0.199885
3.896000	0.202042
3.897000	0.205230
3.898000	0.208579
3.899000	0.212958
3.900000	0.217434
3.901000	0.220332
3.902000	0.223488
3.903000	0.224003
3.904000	0.223166
3.905000	0.220687
3.906000	0.218368
3.907000	0.213409
3.908000	0.208805
3.909000	0.205585
3.910000	0.203202
3.911000	0.201881
3.912000	0.202010
3.913000	0.204136
3.914000	0.207452
3.915000	0.210962
3.916000	0.215953
3.917000	0.219721
3.918000	0.222941
3.919000	0.224357
3.920000	0.225066
3.921000	0.223681
3.922000	0.220300
3.923000	0.217112
3.924000	0.212862
3.925000	0.208386
3.926000	0.205778
3.927000	0.203588
3.928000	0.202944
3.929000	0.203620
3.930000	0.206229
3.931000	0.209094
3.932000	0.213248
3.933000	0.218239
3.934000	0.221202
3.935000	0.224293
3.936000	0.225710
3.937000	0.225903
3.938000	0.223230
3.939000	0.220622
3.940000	0.217048
3.941000	0.212733
3.942000	0.208289
3.943000	0.205488
3.944000	0.203942
3.945000	0.203653
3.946000	0.205520
3.947000	0.208322
3.948000	0.211123
3.949000	0.215824
3.950000	0.220397
3.951000	0.223681
3.952000	0.225645
3.953000	0.226740
3.954000	0.226225
3.955000	0.223456
3.956000	0.220332
3.957000	0.216436
3.958000	0.211831
3.959000	0.208064
3.960000	0.206035
3.961000	0.204297
3.962000	0.204651
3.963000	0.207001
3.964000	0.209867
3.965000	0.213860
3.966000	0.218593
3.967000	0.221942
3.968000	0.225388
3.969000	0.227449
3.970000	0.227577
3.971000	0.225645
3.972000	0.222747
3.973000	0.219560
3.974000	0.215438
3.975000	0.211381
3.976000	0.208386
3.977000	0.205810
3.978000	0.204908
3.979000	0.205263
3.980000	0.208096
3.981000	0.211992
3.982000	0.216178
3.983000	0.220107
3.984000	0.223391
3.985000	0.226611
3.986000	0.228060
3.987000	0.227771
3.988000	0.225581
3.989000	0.223102
3.990000	0.218658
3.991000	0.214214
3.992000	0.210479
3.993000	0.206905
3.994000	0.205585
3.995000	0.205456
3.996000	0.206776
3.997000	0.209738
3.998000	0.213055
3.999000	0.217177
4.000000	0.221524
4.001000	0.224808
4.002000	0.226772
4.003000	0.227803
4.004000	0.227320
4.005000	0.224422
4.006000	0.221427
4.007000	0.216758
4.008000	0.212797
4.009000	0.209159
4.010000	0.206164
4.011000	0.204908
4.012000	0.205102
4.013000	0.207388
4.014000	0.210415
4.015000	0.214665
4.016000	0.218819
4.017000	0.222007
4.018000	0.225581
4.019000	0.227288
4.020000	0.227738
4.021000	0.226708
4.022000	0.223327
4.023000	0.220171
4.024000	0.215631
4.025000	0.211059
4.026000	0.208418
4.027000	0.206100
4.028000	0.205263
4.029000	0.205939
4.030000	0.208289
4.031000	0.211606
4.032000	0.216178
4.033000	0.219978
4.034000	0.222908
4.035000	0.226611
4.036000	0.227867
4.037000	0.227835
4.038000	0.225549
4.039000	0.222522
4.040000	0.218400
4.041000	0.213892
4.042000	0.210511
4.043000	0.207227
4.044000	0.205585
4.045000	0.205907
4.046000	0.206840
4.047000	0.209867
4.048000	0.213023
4.049000	0.217660
4.050000	0.221942
4.051000	0.224969
4.052000	0.227320
4.053000	0.228254
4.054000	0.227320
4.055000	0.225162
4.056000	0.221781
4.057000	0.217499
4.058000	0.213538
4.059000	0.210060
4.060000	0.207388
4.061000	0.206035
4.062000	0.206164
4.063000	0.208322
4.064000	0.211477
4.065000	0.215309
4.066000	0.219914
4.067000	0.223069
4.068000	0.226579
4.069000	0.228447
4.070000	0.228833
4.071000	0.227352
4.072000	0.224068
4.073000	0.221653
4.074000	0.216565
4.075000	0.212733
4.076000	0.209674
4.077000	0.207323
4.078000	0.206003
4.079000	0.207098
4.080000	0.209545
4.081000	0.212765
4.082000	0.216887
4.083000	0.221395
4.084000	0.225098
4.085000	0.227288
4.086000	0.229799
4.087000	0.229187
4.088000	0.227030
4.089000	0.224390
4.090000	0.220300
4.091000	0.215760
4.092000	0.211831
4.093000	0.208676
4.094000	0.207452
4.095000	0.206937
4.096000	0.208257
4.097000	0.211155
4.098000	0.214150
4.099000	0.219817
4.100000	0.223263
4.101000	0.226386
4.102000	0.228994
4.103000	0.230475
4.104000	0.229316
4.105000	0.226064
4.106000	0.223617
4.107000	0.219463
4.108000	0.215084
4.109000	0.211316
4.110000	0.208708
4.111000	0.207034
4.112000	0.207356
4.113000	0.209899
4.114000	0.212862
4.115000	0.216146
4.116000	0.221266
4.117000	0.225259
4.118000	0.228157
4.119000	0.229767
4.120000	0.230443
4.121000	0.228737
4.122000	0.226128
4.123000	0.222490
4.124000	0.218143
4.125000	0.213957
4.126000	0.210930
4.127000	0.208708
4.128000	0.208000
4.129000	0.208579
4.130000	0.210865
4.131000	0.214472
4.132000	0.218465
4.133000	0.222747
4.134000	0.226611
4.135000	0.229413
4.136000	0.231216
4.137000	0.230733
4.138000	0.228511
4.139000	0.226161
4.140000	0.221942
4.141000	0.217370
4.142000	0.213860
4.143000	0.210093
4.144000	0.208869
4.145000	0.208257
4.146000	0.209449
4.147000	0.212636
4.148000	0.215856
4.149000	0.220010
4.150000	0.224905
4.151000	0.228447
4.152000	0.229992
4.153000	0.231119
4.154000	0.230926
4.155000	0.228221
4.156000	0.225388
4.157000	0.221170
4.158000	0.216533
4.159000	0.213119
4.160000	0.209964
4.161000	0.208708
4.162000	0.209094
4.163000	0.211509
4.164000	0.214440
4.165000	0.217982
4.166000	0.222458
4.167000	0.226289
4.168000	0.229767
4.169000	0.231087
4.170000	0.231474
4.171000	0.231023
4.172000	0.227352
4.173000	0.224132
4.174000	0.219688
4.175000	0.215921
4.176000	0.213023
4.177000	0.210318
4.178000	0.209384
4.179000	0.210350
4.180000	0.212991
4.181000	0.216307
4.182000	0.220558
4.183000	0.225098
4.184000	0.227771
4.185000	0.230797
4.186000	0.232568
4.187000	0.232085
4.188000	0.230411
4.189000	0.227288
4.190000	0.223713
4.191000	0.219238
4.192000	0.215599
4.193000	0.213216
4.194000	0.210640
4.195000	0.210447
4.196000	0.211960
4.197000	0.214504
4.198000	0.218336
4.199000	0.222361
4.200000	0.227127
4.201000	0.229799
4.202000	0.232311
4.203000	0.233567
4.204000	0.232633
4.205000	0.229960
4.206000	0.227352
4.207000	0.223456
4.208000	0.219044
4.209000	0.215856
4.210000	0.213087
4.211000	0.211252
4.212000	0.211735
4.213000	0.213763
4.214000	0.216694
4.215000	0.220654
4.216000	0.225678
4.217000	0.229187
4.218000	0.232794
4.219000	0.234855
4.220000	0.235273
4.221000	0.233856
4.222000	0.231441
4.223000	0.228125
4.224000	0.223649
4.225000	0.219366
4.226000	0.216500
4.227000	0.214472
4.228000	0.212894
4.229000	0.214407
4.230000	0.217080
4.231000	0.220236
4.232000	0.224905
4.233000	0.229252
4.234000	0.232633
4.235000	0.235917
4.236000	0.237946
4.237000	0.237688
4.238000	0.235982
4.239000	0.232923
4.240000	0.228865
4.241000	0.224647
4.242000	0.220719
4.243000	0.218014
4.244000	0.216082
4.245000	0.215953
4.246000	0.217692
4.247000	0.220268
4.248000	0.223907
4.249000	0.228672
4.250000	0.233245
4.251000	0.236433
4.252000	0.238687
4.253000	0.240232
4.254000	0.239588
4.255000	0.237109
4.256000	0.234468
4.257000	0.229992
4.258000	0.225420
4.259000	0.222876
4.260000	0.219688
4.261000	0.218271
4.262000	0.218239
4.263000	0.220493
4.264000	0.224261
4.265000	0.227835
4.266000	0.232440
4.267000	0.236175
4.268000	0.240039
4.269000	0.241907
4.270000	0.242840
4.271000	0.241391
4.272000	0.238139
4.273000	0.235080
4.274000	0.230926
4.275000	0.226418
4.276000	0.223713
4.277000	0.221363
4.278000	0.220526
4.279000	0.221427
4.280000	0.224229
4.281000	0.227288
4.282000	0.231152
4.283000	0.235950
4.284000	0.239814
4.285000	0.242615
4.286000	0.244483
4.287000	0.244354
4.288000	0.242679
4.289000	0.239105
4.290000	0.235950
4.291000	0.231377
4.292000	0.227352
4.293000	0.224615
4.294000	0.222941
4.295000	0.222780
4.296000	0.224196
4.297000	0.227127
4.298000	0.230282
4.299000	0.234951
4.300000	0.239620
4.301000	0.242293
4.302000	0.245127
4.303000	0.245964
4.304000	0.245545
4.305000	0.242969
4.306000	0.240490
4.307000	0.236497
4.308000	0.231989
4.309000	0.228028
4.310000	0.225098
4.311000	0.223778
4.312000	0.224261
4.313000	0.226225
4.314000	0.229670
4.315000	0.233245
4.316000	0.237817
4.317000	0.242132
4.318000	0.244998
4.319000	0.246704
4.320000	0.247509
4.321000	0.246350
4.322000	0.243742
4.323000	0.240554
4.324000	0.235853
4.325000	0.231763
4.326000	0.228576
4.327000	0.226257
4.328000	0.225356
4.329000	0.225774
4.330000	0.228962
4.331000	0.231796
4.332000	0.236014
4.333000	0.240908
4.334000	0.244193
4.335000	0.247735
4.336000	0.248540
4.337000	0.248991
4.338000	0.246898
4.339000	0.243678
4.340000	0.240619
4.341000	0.235692
4.342000	0.231924
4.343000	0.228608
4.344000	0.226998
4.345000	0.226644
4.346000	0.227835
4.347000	0.231248
4.348000	0.234243
4.349000	0.238944
4.350000	0.243001
4.351000	0.246189
4.352000	0.249023
4.353000	0.249667
4.354000	0.249731
4.355000	0.247316
4.356000	0.243774
4.357000	0.239524
4.358000	0.235370
4.359000	0.231635
4.360000	0.228479
4.361000	0.227191
4.362000	0.227867
4.363000	0.229960
4.364000	0.232858
4.365000	0.236336
4.366000	0.241134
4.367000	0.245127
4.368000	0.248765
4.369000	0.250182
4.370000	0.250858
4.371000	0.249860
4.372000	0.246447
4.373000	0.243517
4.374000	0.239170
4.375000	0.234726
4.376000	0.231635
4.377000	0.229091
4.378000	0.228447
4.379000	0.228962
4.380000	0.231152
4.381000	0.235145
4.382000	0.239041
4.383000	0.243227
4.384000	0.247187
4.385000	0.250472
4.386000	0.252114
4.387000	0.251116
4.388000	0.249796
4.389000	0.246382
4.390000	0.243227
4.391000	0.238815
4.392000	0.234758
4.393000	0.231731
4.394000	0.229992
4.395000	0.229864
4.396000	0.230701
4.397000	0.233341
4.398000	0.237109
4.399000	0.241134
4.400000	0.245899
4.401000	0.249152
4.402000	0.251760
4.403000	0.252887
4.404000	0.252404
4.405000	0.249667
4.406000	0.246833
4.407000	0.242422
4.408000	0.238171
4.409000	0.234694
4.410000	0.231409
4.411000	0.230379
4.412000	0.230830
4.413000	0.232279
4.414000	0.235595
4.415000	0.239653
4.416000	0.243742
4.417000	0.247767
4.418000	0.250568
4.419000	0.252855
4.420000	0.253467
4.421000	0.252372
4.422000	0.249248
4.423000	0.246479
4.424000	0.241778
4.425000	0.237849
4.426000	0.234629
4.427000	0.231989
4.428000	0.231667
4.429000	0.231184
4.430000	0.233728
4.431000	0.237302
4.432000	0.241552
4.433000	0.245867
4.434000	0.249184
4.435000	0.252468
4.436000	0.254207
4.437000	0.253853
4.438000	0.251953
4.439000	0.249184
4.440000	0.245610
4.441000	0.240393
4.442000	0.237141
4.443000	0.234082
4.444000	0.232182
4.445000	0.231699
4.446000	0.233116
4.447000	0.235885
4.448000	0.239620
4.449000	0.243935
4.450000	0.247187
4.451000	0.250729
4.452000	0.253499
4.453000	0.254626
4.454000	0.253885
4.455000	0.251857
4.456000	0.248733
4.457000	0.244386
4.458000	0.239781
4.459000	0.236143
4.460000	0.233212
4.461000	0.231699
4.462000	0.231957
4.463000	0.233760
4.464000	0.236883
4.465000	0.240683
4.466000	0.245094
4.467000	0.248830
4.468000	0.252275
4.469000	0.254014
4.470000	0.254336
4.471000	0.253016
4.472000	0.250246
4.473000	0.247091
4.474000	0.242776
4.475000	0.238526
4.476000	0.234822
4.477000	0.232826
4.478000	0.231345
4.479000	0.232118
4.480000	0.234597
4.481000	0.237527
4.482000	0.241746
4.483000	0.246028
4.484000	0.250279
4.485000	0.252758
4.486000	0.254111
4.487000	0.254626
4.488000	0.252211
4.489000	0.249441
4.490000	0.245577
4.491000	0.241005
4.492000	0.237431
4.493000	0.234146
4.494000	0.232214
4.495000	0.231892
4.496000	0.233148
4.497000	0.235821
4.498000	0.239363
4.499000	0.243935
4.500000	0.248347
4.501000	0.251470
4.502000	0.254272
4.503000	0.255463
4.504000	0.254433
4.505000	0.251857
4.506000	0.249023
4.507000	0.245094
4.508000	0.240200
4.509000	0.236658
4.510000	0.233599
4.511000	0.232472
4.512000	0.232182
4.513000	0.234307
4.514000	0.237205
4.515000	0.240747
4.516000	0.245867
4.517000	0.249506
4.518000	0.252662
4.519000	0.254561
4.520000	0.255366
4.521000	0.254207
4.522000	0.250729
4.523000	0.247896
4.524000	0.243420
4.525000	0.238815
4.526000	0.236078
4.527000	0.233695
4.528000	0.232440
4.529000	0.233245
4.530000	0.235209
4.531000	0.238107
4.532000	0.241971
4.533000	0.247284
4.534000	0.250407
4.535000	0.253467
4.536000	0.255527
4.537000	0.255334
4.538000	0.252919
4.539000	0.250568
4.540000	0.246543
4.541000	0.242583
4.542000	0.238139
4.543000	0.235177
4.544000	0.233534
4.545000	0.232697
4.546000	0.234500
4.547000	0.237141
4.548000	0.240393
4.549000	0.244161
4.550000	0.248443
4.551000	0.251921
4.552000	0.254239
4.553000	0.255753
4.554000	0.255334
4.555000	0.253080
4.556000	0.250343
4.557000	0.245191
4.558000	0.241327
4.559000	0.237592
4.560000	0.234887
4.561000	0.232955
4.562000	0.233856
4.563000	0.235402
4.564000	0.238365
4.565000	0.241456
4.566000	0.245899
4.567000	0.250118
4.568000	0.253209
4.569000	0.255463
4.570000	0.256204
4.571000	0.254787
4.572000	0.251921
4.573000	0.249313
4.574000	0.244644
4.575000	0.240264
4.576000	0.237366
4.577000	0.235145
4.578000	0.233534
4.579000	0.234114
4.580000	0.236561
4.581000	0.239975
4.582000	0.243871
4.583000	0.248347
4.584000	0.252372
4.585000	0.255077
4.586000	0.256654
4.587000	0.256590
4.588000	0.254336
4.589000	0.251696
4.590000	0.248153
4.591000	0.243774
4.592000	0.239395
4.593000	0.236497
4.594000	0.234307
4.595000	0.234146
4.596000	0.235467
4.597000	0.238171
4.598000	0.240780
4.599000	0.245738
4.600000	0.249538
4.601000	0.253402
4.602000	0.255914
4.603000	0.257298
4.604000	0.256944
4.605000	0.254239
4.606000	0.250762
4.607000	0.247220
4.608000	0.242454
4.609000	0.239170
4.610000	0.235789
4.611000	0.234533
4.612000	0.234436
4.613000	0.236755
4.614000	0.239749
4.615000	0.243227
4.616000	0.247799
4.617000	0.252307
4.618000	0.254851
4.619000	0.256944
4.620000	0.257781
4.621000	0.256429
4.622000	0.253628
4.623000	0.250794
4.624000	0.246318
4.625000	0.242100
4.626000	0.238461
4.627000	0.236304
4.628000	0.234565
4.629000	0.236046
4.630000	0.238107
4.631000	0.241359
4.632000	0.245191
4.633000	0.250118
4.634000	0.253628
4.635000	0.256204
4.636000	0.258490
4.637000	0.258361
4.638000	0.256751
4.639000	0.252919
4.640000	0.250021
4.641000	0.245320
4.642000	0.241134
4.643000	0.238171
4.644000	0.236111
4.645000	0.235885
4.646000	0.236755
4.647000	0.239588
4.648000	0.243098
4.649000	0.247703
4.650000	0.252050
4.651000	0.255334
4.652000	0.257910
4.653000	0.259746
4.654000	0.258844
4.655000	0.256622
4.656000	0.253531
4.657000	0.249989
4.658000	0.245384
4.659000	0.241134
4.660000	0.238654
4.661000	0.237173
4.662000	0.237173
4.663000	0.239298
4.664000	0.242068
4.665000	0.245803
4.666000	0.250246
4.667000	0.254207
4.668000	0.257588
4.669000	0.259295
4.670000	0.259617
4.671000	0.258747
4.672000	0.256236
4.673000	0.253273
4.674000	0.248958
4.675000	0.244515
4.676000	0.241295
4.677000	0.238912
4.678000	0.237624
4.679000	0.237495
4.680000	0.240973
4.681000	0.243839
4.682000	0.247445
4.683000	0.252114
4.684000	0.255688
4.685000	0.258908
4.686000	0.260132
4.687000	0.260744
4.688000	0.258683
4.689000	0.255495
4.690000	0.252565
4.691000	0.247896
4.692000	0.243935
4.693000	0.240812
4.694000	0.238976
4.695000	0.238590
4.696000	0.239814
4.697000	0.242422
4.698000	0.245481
4.699000	0.250053
4.700000	0.254368
4.701000	0.257395
4.702000	0.259778
4.703000	0.261806
4.704000	0.261259
4.705000	0.258554
4.706000	0.255785
4.707000	0.251953
4.708000	0.247735
4.709000	0.243645
4.710000	0.240651
4.711000	0.239009
4.712000	0.239298
4.713000	0.241166
4.714000	0.244386
4.715000	0.247542
4.716000	0.251889
4.717000	0.256558
4.718000	0.259456
4.719000	0.260937
4.720000	0.262708
4.721000	0.261098
4.722000	0.258522
4.723000	0.255077
4.724000	0.250826
4.725000	0.246479
4.726000	0.243259
4.727000	0.241166
4.728000	0.239556
4.729000	0.240297
4.730000	0.242679
4.731000	0.246028
4.732000	0.249796
4.733000	0.254755
4.734000	0.258780
4.735000	0.261710
4.736000	0.263127
4.737000	0.263545
4.738000	0.261034
4.739000	0.258844
4.740000	0.254722
4.741000	0.250729
4.742000	0.246704
4.743000	0.243227
4.744000	0.241391
4.745000	0.241005
4.746000	0.242293
4.747000	0.245030
4.748000	0.248475
4.749000	0.252823
4.750000	0.256944
4.751000	0.260454
4.752000	0.263481
4.753000	0.264898
4.754000	0.264769
4.755000	0.262161
4.756000	0.259069
4.757000	0.254722
4.758000	0.250697
4.759000	0.246994
4.760000	0.243967
4.761000	0.242325
4.762000	0.242808
4.763000	0.244772
4.764000	0.248089
4.765000	0.251116
4.766000	0.256107
4.767000	0.260100
4.768000	0.263513
4.769000	0.265638
4.770000	0.266121
4.771000	0.265477
4.772000	0.262901
4.773000	0.259842
4.774000	0.255366
4.775000	0.251309
4.776000	0.248186
4.777000	0.245320
4.778000	0.244644
4.779000	0.245223
4.780000	0.247220
4.781000	0.250762
4.782000	0.255012
4.783000	0.259488
4.784000	0.262708
4.785000	0.266540
4.786000	0.267892
4.787000	0.267925
4.788000	0.266379
4.789000	0.263706
4.790000	0.260229
4.791000	0.255914
4.792000	0.251953
4.793000	0.248830
4.794000	0.246737
4.795000	0.246608
4.796000	0.247896
4.797000	0.250021
4.798000	0.253950
4.799000	0.257942
4.800000	0.262579
4.801000	0.265831
4.802000	0.268794
4.803000	0.270018
4.804000	0.269953
4.805000	0.267892
4.806000	0.264543
4.807000	0.260808
4.808000	0.256783
4.809000	0.252694
4.810000	0.249860
4.811000	0.248475
4.812000	0.248669
4.813000	0.250826
4.814000	0.253660
4.815000	0.257202
4.816000	0.261678
4.817000	0.265638
4.818000	0.269277
4.819000	0.271338
4.820000	0.272207
4.821000	0.271145
4.822000	0.268762
4.823000	0.265670
4.824000	0.261517
4.825000	0.257009
4.826000	0.254175
4.827000	0.251953
4.828000	0.250407
4.829000	0.250633
4.830000	0.253048
4.831000	0.256461
4.832000	0.260647
4.833000	0.265316
4.834000	0.268633
4.835000	0.271917
4.836000	0.273753
4.837000	0.274043
4.838000	0.272561
4.839000	0.269084
4.840000	0.265767
4.841000	0.261291
4.842000	0.257298
4.843000	0.254368
4.844000	0.251921
4.845000	0.251631
4.846000	0.252951
4.847000	0.255817
4.848000	0.259295
4.849000	0.263674
4.850000	0.268214
4.851000	0.270951
4.852000	0.274139
4.853000	0.275975
4.854000	0.275427
4.855000	0.272980
4.856000	0.269857
4.857000	0.265960
4.858000	0.262000
4.859000	0.258490
4.860000	0.254626
4.861000	0.253177
4.862000	0.253531
4.863000	0.255721
4.864000	0.258200
4.865000	0.262450
4.866000	0.266701
4.867000	0.270790
4.868000	0.274043
4.869000	0.276425
4.870000	0.276683
4.871000	0.275653
4.872000	0.273624
4.873000	0.269889
4.874000	0.265703
4.875000	0.261774
4.876000	0.258200
4.877000	0.255817
4.878000	0.254626
4.879000	0.255012
4.880000	0.257524
4.881000	0.260390
4.882000	0.264608
4.883000	0.269470
4.884000	0.273334
4.885000	0.276264
4.886000	0.278325
4.887000	0.278035
4.888000	0.276458
4.889000	0.273527
4.890000	0.270565
4.891000	0.265767
4.892000	0.261806
4.893000	0.258554
4.894000	0.256493
4.895000	0.256654
4.896000	0.257105
4.897000	0.259520
4.898000	0.263062
4.899000	0.267442
4.900000	0.271917
4.901000	0.274590
4.902000	0.277874
4.903000	0.279388
4.904000	0.278712
4.905000	0.276651
4.906000	0.273785
4.907000	0.269406
4.908000	0.264801
4.909000	0.261484
4.910000	0.258651
4.911000	0.256751
4.912000	0.257105
4.913000	0.259102
4.914000	0.261452
4.915000	0.265284
4.916000	0.269857
4.917000	0.274043
4.918000	0.276844
4.919000	0.279227
4.920000	0.279839
4.921000	0.278937
4.922000	0.276071
4.923000	0.273431
4.924000	0.268408
4.925000	0.264543
4.926000	0.261613
4.927000	0.258297
4.928000	0.256654
4.929000	0.257685
4.930000	0.260068
4.931000	0.262869
4.932000	0.267506
4.933000	0.271306
4.934000	0.275266
4.935000	0.278744
4.936000	0.279903
4.937000	0.280193
4.938000	0.278261
4.939000	0.275588
4.940000	0.272465
4.941000	0.267442
4.942000	0.263384
4.943000	0.260873
4.944000	0.258554
4.945000	0.258136
4.946000	0.259005
4.947000	0.261388
4.948000	0.264254
4.949000	0.269213
4.950000	0.273560
4.951000	0.276554
4.952000	0.279356
4.953000	0.281674
4.954000	0.280354
4.955000	0.277971
4.956000	0.275041
4.957000	0.270726
4.958000	0.266154
4.959000	0.262837
4.960000	0.259778
4.961000	0.257846
4.962000	0.258136
4.963000	0.259778
4.964000	0.262000
4.965000	0.265638
4.966000	0.271016
4.967000	0.274912
4.968000	0.277391
4.969000	0.280289
4.970000	0.281191
4.971000	0.280032
4.972000	0.276715
4.973000	0.273560
4.974000	0.269213
4.975000	0.265059
4.976000	0.262032
4.977000	0.258812
4.978000	0.257363
4.979000	0.257749
4.980000	0.260615
4.981000	0.263449
4.982000	0.267506
4.983000	0.271499
4.984000	0.275910
4.985000	0.278551
4.986000	0.281127
4.987000	0.280708
4.988000	0.278647
4.989000	0.276103
4.990000	0.272561
4.991000	0.267764
4.992000	0.263738
4.993000	0.261291
4.994000	0.258168
4.995000	0.257685
4.996000	0.258297
4.997000	0.260969
4.998000	0.264930
4.999000	0.268955
